SpectraSuite Datei
++++++++++++++++++++++++++++++++++++
Datum: Fri Jan 02 21:28:59 CET 2004
Benutzer: Student
Dark-Spektrum vorhanden: Ja
Referenz-Spektrum vorhanden: Nein
Zahl der probierten Teilspektren: 1
Spektrometer: USB2+H15728
Integrationszeit (usec): 100000 (USB2+H15728)
Spektren Durchschnitt berechnet: 1 (USB2+H15728)
Boxcar Glättung: 0 (USB2+H15728)
Dunkelstromkorrektur: Nein (USB2+H15728)
Puls/Lampe aktiviert: Nein (USB2+H15728)
Correct for Detector Non-linearity: Nein (USB2+H15728)
Streulichtkorrektur: Nein (USB2+H15728)
Anzahl Pixel in verarbeitetem Spektrum: 2048
>>>>>Begin Processed Spectral Data<<<<<
394,80	1315,38
394,99	1315,38
395,18	1315,38
395,37	1331,76
395,56	1359,85
395,75	1308,36
395,94	1371,55
396,13	1404,32
396,32	1399,64
396,51	1460,49
396,70	1362,19
396,89	1423,05
397,08	1399,64
397,27	1418,36
397,46	1418,36
397,65	1451,13
397,84	1420,71
398,03	1535,39
398,23	1488,58
398,42	1521,35
398,61	1605,61
398,80	1554,12
398,99	1589,22
399,18	2977,16
399,37	6841,39
399,56	7070,76
399,75	7375,03
399,94	7377,37
400,13	7391,41
400,31	7510,78
400,50	7410,14
400,69	7719,09
400,88	7742,49
401,07	7595,04
401,26	7592,70
401,45	7805,69
401,64	7726,11
401,83	7967,18
402,02	7918,03
402,21	7894,63
402,40	8161,45
402,59	8196,56
402,78	8276,13
402,97	8035,06
403,16	8404,86
403,35	8241,03
403,54	8519,55
403,73	8320,60
403,92	8552,32
404,11	8564,02
404,30	8702,11
404,49	8690,41
404,68	8774,67
404,86	8695,09
405,05	8732,54
405,24	8896,38
405,43	8919,78
405,62	9095,32
405,81	8781,69
406,00	9107,02
406,19	9071,92
406,38	9305,97
406,57	9437,04
406,76	9341,08
406,94	9270,86
407,13	9465,13
407,32	9554,07
407,51	9528,32
407,70	9851,31
407,89	9561,09
408,08	9951,96
408,27	9947,28
408,46	10181,33
408,64	9966,00
408,83	10066,64
409,02	10148,56
409,21	10338,15
409,40	10326,44
409,59	10506,66
409,78	10473,90
409,97	10548,79
410,15	10607,31
410,34	10487,94
410,53	10548,79
410,72	10766,46
410,91	10841,36
411,10	11173,72
411,28	10956,05
411,47	11136,27
411,66	11112,86
411,85	11215,85
412,04	11393,73
412,23	11349,26
412,41	11623,10
412,60	11648,85
412,79	11777,58
412,98	11555,22
413,17	11728,42
413,36	11929,71
413,54	11899,28
413,73	11676,93
413,92	12070,14
414,11	12140,36
414,30	12521,87
414,48	12711,45
414,67	12266,75
414,86	12531,23
415,05	12339,30
415,24	12776,98
415,42	12486,76
415,61	12451,65
415,80	12980,61
415,99	12388,46
416,17	12851,88
416,36	12943,16
416,55	13156,15
416,74	13151,47
416,93	12950,18
417,11	13528,30
417,30	13291,90
417,49	13394,89
417,68	13432,33
417,86	13273,18
418,05	13331,69
418,24	13460,42
418,43	13319,99
418,61	13551,70
418,80	13682,77
418,99	13376,16
419,18	14038,53
419,36	13844,27
419,55	13542,34
419,74	14047,90
419,92	14017,47
420,11	13905,12
420,30	13703,84
420,49	13940,23
420,67	14214,07
420,86	14342,80
421,05	14277,27
421,23	14305,35
421,42	14445,79
421,61	14644,73
421,80	14562,81
421,98	14518,34
422,17	14195,35
422,36	14981,77
422,54	14642,39
422,73	14410,68
422,92	14841,34
423,10	14930,28
423,29	14843,68
423,48	14672,82
423,66	14897,51
423,85	15091,77
424,04	15407,75
424,22	14944,32
424,41	15061,35
424,60	15054,33
424,78	15283,70
424,97	15475,62
425,16	15248,59
425,34	15154,97
425,53	15218,16
425,72	15714,36
425,90	15311,78
426,09	15655,84
426,28	15562,22
426,46	15786,91
426,65	15775,21
426,84	15805,64
427,02	15875,85
427,21	16109,91
427,39	15971,82
427,58	16205,87
427,77	16049,05
427,95	16233,96
428,14	16479,71
428,33	16400,13
428,51	16587,38
428,70	16137,99
428,88	16360,34
429,07	16568,65
429,26	16706,74
429,44	16460,99
429,63	16458,65
429,81	16692,70
430,00	16676,32
430,18	16989,95
430,37	17125,70
430,56	16896,33
430,74	16798,02
430,93	17099,95
431,11	17296,56
431,30	17584,44
431,49	17397,20
431,67	17582,10
431,86	17767,01
432,04	17329,33
432,23	17717,86
432,41	17743,60
432,60	18373,21
432,78	18052,55
432,97	17879,35
433,16	17961,27
433,34	17980,00
433,53	18424,70
433,71	18527,68
433,90	18277,24
434,08	18707,90
434,27	18710,24
434,45	18787,48
434,64	18920,89
434,82	18850,67
435,01	19030,90
435,19	18934,93
435,38	18967,70
435,56	19194,73
435,75	19243,88
435,93	19302,40
436,12	19339,85
436,30	19424,11
436,49	19276,65
436,67	19700,29
436,86	19838,38
437,04	19864,13
437,23	19969,45
437,41	19995,20
437,60	19868,81
437,78	19545,81
437,97	19992,86
438,15	19789,23
438,34	20065,41
438,52	20095,84
438,71	20559,27
438,89	20540,54
439,08	20173,08
439,26	20304,15
439,45	20051,37
439,63	20577,99
439,81	20753,53
440,00	20666,93
440,18	20851,83
440,37	20329,89
440,55	20477,35
440,74	20119,24
440,92	20917,37
441,11	20641,18
441,29	20547,56
441,47	21078,86
441,66	20482,03
441,84	20776,94
442,03	20601,40
442,21	20938,43
442,39	21008,65
442,58	20790,98
442,76	21359,73
442,95	21083,55
443,13	21212,28
443,32	20821,41
443,50	21425,26
443,68	20664,59
443,87	20704,38
444,05	20912,69
444,23	21109,29
444,42	20812,04
444,60	20664,59
444,79	20720,76
444,97	20987,58
445,15	20971,20
445,34	20858,85
445,52	20980,56
445,71	21046,10
445,89	21048,44
446,07	20704,38
446,26	20573,31
446,44	20706,72
446,62	20755,87
446,81	20306,49
446,99	20961,84
447,17	20884,60
447,36	20222,23
447,54	20236,27
447,72	20615,44
447,91	20737,15
448,09	20830,77
448,27	20435,22
448,46	20809,70
448,64	20273,72
448,82	20374,36
449,01	20556,93
449,19	20418,83
449,37	20905,66
449,56	20238,61
449,74	20589,69
449,92	20266,70
450,11	19976,47
450,29	20100,52
450,47	20540,54
450,66	20112,22
450,84	20025,62
451,02	20264,36
451,20	20257,34
451,39	20395,43
451,57	19854,76
451,75	20161,37
451,94	20280,74
452,12	20507,77
452,30	20343,94
452,48	20210,53
452,67	19758,80
452,85	19995,20
453,03	20346,28
453,21	20133,29
453,40	20060,73
453,58	20365,00
453,76	19707,31
453,94	20173,08
454,13	20198,82
454,31	19630,07
454,49	19995,20
454,67	20278,40
454,86	19777,53
455,04	19903,92
455,22	19838,38
455,40	19810,29
455,59	19775,19
455,77	19704,97
455,95	19714,33
456,13	19917,96
456,32	19873,49
456,50	19616,03
456,68	19695,61
456,86	19873,49
457,04	20140,31
457,23	20072,43
457,41	19683,91
457,59	20046,69
457,77	20175,42
457,95	19992,86
458,14	19906,26
458,32	20205,84
458,50	19896,89
458,68	19861,79
458,86	20098,18
459,04	20084,14
459,23	19714,33
459,41	19922,64
459,59	19817,32
459,77	19920,30
459,95	19981,15
460,13	20306,49
460,32	20093,50
460,50	20173,08
460,68	20091,16
460,86	20063,07
461,04	20374,36
461,22	20393,09
461,41	20208,19
461,59	19999,88
461,77	19955,41
461,95	20229,25
462,13	20276,06
462,31	20142,65
462,49	20374,36
462,68	20126,27
462,86	20376,70
463,04	20439,90
463,22	20650,55
463,40	20407,13
463,58	20360,32
463,76	20379,04
463,94	20524,16
464,12	20437,56
464,31	20699,70
464,49	20542,88
464,67	20603,74
464,85	20669,27
465,03	20638,84
465,21	20699,70
465,39	20617,78
465,57	20814,38
465,75	20765,23
465,93	20912,69
466,11	20587,35
466,29	20428,20
466,48	20629,48
466,66	20411,81
466,84	20484,37
467,02	20538,20
467,20	20081,80
467,38	20262,02
467,56	20507,77
467,74	20451,60
467,92	19817,32
468,10	20196,48
468,28	20262,02
468,46	19882,85
468,64	20077,12
468,82	19880,51
469,00	20051,37
469,18	19550,49
469,36	19964,77
469,54	19796,25
469,72	19735,40
469,90	19950,73
470,08	19892,21
470,26	19618,37
470,44	19906,26
470,62	19714,33
470,80	19826,68
470,98	19552,84
471,16	19817,32
471,34	19494,32
471,52	19470,92
471,70	19381,98
471,88	19693,27
472,06	19426,45
472,24	19754,12
472,42	19417,08
472,60	19293,04
472,78	18995,79
472,96	19499,00
473,14	19300,06
473,32	19061,32
473,50	19520,07
473,68	19117,50
473,86	19119,84
474,04	19569,22
474,22	19255,59
474,40	19220,48
474,58	19307,08
474,76	19035,58
474,94	19248,57
475,12	19145,58
475,30	19199,41
475,48	19058,98
475,66	19002,81
475,84	19019,19
476,02	18799,18
476,19	18801,52
476,37	19075,37
476,55	18714,92
476,73	18787,48
476,91	18693,86
477,09	18794,50
477,27	18991,11
477,45	18541,72
477,63	18541,72
477,81	18768,76
477,99	18752,37
478,16	18443,42
478,34	18324,05
478,52	18492,57
478,70	18394,27
478,88	18143,83
479,06	18398,95
479,24	18349,80
479,42	18214,05
479,60	17968,29
479,77	18127,45
479,95	18200,01
480,13	18251,50
480,31	17968,29
480,49	17942,55
480,67	17898,08
480,85	18111,07
481,02	17743,60
481,20	18029,15
481,38	17759,98
481,56	17881,69
481,74	17584,44
481,92	17860,63
482,10	17874,67
482,27	17642,96
482,45	17806,80
482,63	17514,23
482,81	17390,18
482,99	17069,53
483,17	17603,17
483,34	17495,50
483,52	17422,95
483,70	17474,44
483,88	17448,69
484,06	17380,82
484,23	17172,51
484,41	17055,48
484,59	17296,56
484,77	17048,46
484,95	16992,29
485,12	16978,25
485,30	17043,78
485,48	16919,73
485,66	16943,14
485,84	17015,69
486,01	16830,79
486,19	16791,00
486,37	16905,69
486,55	16725,47
486,72	16819,09
486,90	16437,58
487,08	16559,29
487,26	16641,21
487,43	16414,18
487,61	16535,88
487,79	16449,28
487,97	16376,73
488,14	16439,92
488,32	16489,07
488,50	16322,90
488,68	16332,26
488,85	16353,32
489,03	16058,42
489,21	16154,38
489,39	16128,63
489,56	16077,14
489,74	16023,31
489,92	15754,15
490,10	15885,22
490,27	15915,64
490,45	15873,51
490,63	15630,10
490,80	15789,25
490,98	16044,37
491,16	16002,24
491,33	15655,84
491,51	15660,52
491,69	15723,72
491,87	15325,83
492,04	15274,34
492,22	15449,88
492,40	15700,31
492,57	15365,62
492,75	15590,31
492,93	15239,23
493,10	14941,98
493,28	15332,85
493,46	15108,16
493,63	15143,27
493,81	15124,54
493,99	14998,15
494,16	14993,47
494,34	15145,61
494,52	14911,55
494,69	14862,40
494,87	15033,26
495,05	15063,69
495,22	14965,39
495,40	15021,56
495,57	14600,26
495,75	14689,20
495,93	14651,75
496,10	14700,90
496,28	14705,59
496,46	14731,33
496,63	14736,01
496,81	14513,66
496,98	14462,17
497,16	14366,21
497,34	14513,66
497,51	14436,42
497,69	14555,79
497,86	14340,46
498,04	14307,69
498,22	14277,27
498,39	14225,78
498,57	14363,87
498,74	14190,67
498,92	14401,32
499,10	14424,72
499,27	14305,35
499,45	14422,38
499,62	14668,14
499,80	14628,35
499,97	14658,78
500,15	14768,78
500,33	15026,24
500,50	14846,02
500,68	15314,13
500,85	15019,22
501,03	15241,57
501,20	15564,56
501,38	15719,04
501,55	15639,46
501,73	15817,34
501,90	16262,04
502,08	16587,38
502,25	16477,37
502,43	16713,77
502,61	16915,05
502,78	17003,99
502,96	17193,58
503,13	17558,70
503,31	17490,82
503,48	17404,22
503,66	17839,56
503,83	18260,86
504,01	18553,43
504,18	19016,85
504,36	18960,68
504,53	19047,28
504,71	19765,82
504,88	19749,44
505,06	19679,22
505,23	20238,61
505,41	20271,38
505,58	20531,18
505,76	20926,73
505,93	21310,58
506,10	21575,06
506,28	21408,88
506,45	21846,56
506,63	22132,11
506,80	22773,41
506,98	22785,12
507,15	22986,40
507,33	23520,04
507,50	23543,45
507,68	23971,77
507,85	24467,96
508,02	24435,19
508,20	24936,07
508,37	25837,17
508,55	25741,21
508,72	26237,41
508,90	26209,32
509,07	26796,79
509,24	27505,98
509,42	27686,20
509,59	27538,74
509,77	27615,98
509,94	27821,95
510,12	28287,71
510,29	28971,15
510,46	29364,36
510,64	28842,42
510,81	28865,83
510,98	29394,79
511,16	30026,73
511,33	30022,05
511,51	29998,65
511,68	30265,47
511,85	30455,05
512,03	31292,96
512,20	32034,91
512,38	32336,84
512,55	32671,54
512,72	32404,72
512,90	32582,60
513,07	33015,60
513,24	33947,13
513,42	34583,76
513,59	34611,84
513,76	34651,63
513,94	34745,25
514,11	35077,61
514,28	36526,40
514,46	36690,24
514,63	37146,64
514,80	36921,95
514,98	36669,17
515,15	35988,08
515,32	36077,02
515,50	36259,58
515,67	37549,21
515,84	38164,78
516,02	37851,14
516,19	37607,73
516,36	37095,15
516,54	37296,44
516,71	37713,05
516,88	39292,91
517,05	39995,07
517,23	39732,93
517,40	39423,98
517,57	38546,28
517,75	37811,35
517,92	38391,81
518,09	38885,66
518,26	40179,98
518,44	41024,91
518,61	41106,83
518,78	40240,83
518,96	39749,32
519,13	39711,87
519,30	40669,15
519,47	41326,84
519,65	42410,51
519,82	42820,10
519,99	43276,51
520,16	42855,21
520,34	41240,24
520,51	40643,40
520,68	40774,47
520,85	42204,54
521,03	43154,80
521,20	43952,92
521,37	44217,40
521,54	44198,68
521,71	43192,25
521,89	42223,26
522,06	41766,86
522,23	42410,51
522,40	44296,98
522,57	44842,32
522,75	45406,39
522,92	46380,06
523,09	46176,43
523,26	44767,43
523,43	43449,70
523,61	42714,78
523,78	43976,33
523,95	45551,51
524,12	45961,10
524,29	46960,51
524,47	47688,42
524,64	47281,16
524,81	47756,29
524,98	45336,18
525,15	45052,97
525,32	44570,82
525,50	45734,07
525,67	47152,43
525,84	47084,56
526,01	48746,34
526,18	49226,15
526,35	49113,80
526,52	48193,97
526,70	46499,42
526,87	46059,40
527,04	45315,11
527,21	46768,58
527,38	48165,88
527,55	49160,61
527,72	49773,83
527,90	50326,20
528,07	50204,49
528,24	48931,24
528,41	48900,81
528,58	47224,99
528,75	47552,66
528,92	48872,73
529,09	49928,31
529,26	50389,39
529,43	51260,07
529,61	51152,41
529,78	52275,87
529,95	52369,49
530,12	52343,74
530,29	51248,37
530,46	50555,57
530,63	50468,97
530,80	50471,31
530,97	51395,82
531,14	52381,19
531,31	52243,10
531,48	52947,60
531,65	53736,36
531,83	54035,95
532,00	53055,26
532,17	51601,79
532,34	50550,89
532,51	50571,96
532,68	50625,79
532,85	51585,41
533,02	52718,23
533,19	53420,39
533,36	54122,55
533,53	54312,13
533,70	54815,35
533,87	53921,26
534,04	52748,65
534,21	51217,94
534,38	51246,03
534,55	51384,12
534,72	52294,59
534,89	53570,18
535,06	54113,19
535,23	54770,88
535,40	54534,48
535,57	54700,66
535,74	54789,60
535,91	54625,76
536,08	53673,16
536,25	52893,77
536,42	51997,34
536,59	51964,57
536,76	52849,30
536,93	53188,67
537,10	53900,20
537,27	53719,98
537,44	53722,32
537,61	54384,69
537,78	55667,30
537,95	55475,38
538,12	55686,03
538,29	54068,72
538,45	52420,98
538,62	51405,19
538,79	51611,15
538,96	51353,69
539,13	52203,31
539,30	53279,96
539,47	53542,10
539,64	54759,17
539,81	55765,60
539,98	56100,30
540,15	56229,03
540,32	55140,68
540,49	53939,99
540,66	51870,95
540,82	50445,57
540,99	50918,35
541,16	51793,71
541,33	52697,16
541,50	53766,79
541,67	54855,14
541,84	55576,02
542,01	56594,15
542,18	56725,22
542,34	56404,57
542,51	55571,34
542,68	53862,75
542,85	51793,71
543,02	50625,79
543,19	50864,52
543,36	52687,80
543,53	53514,01
543,69	54838,75
543,86	55922,42
544,03	56647,99
544,20	57022,47
544,37	57176,95
544,54	56409,25
544,70	55496,44
544,87	54134,25
545,04	53588,91
545,21	52491,19
545,38	51840,53
545,55	52011,38
545,71	53778,49
545,88	54508,74
546,05	55503,46
546,22	56690,12
546,39	57029,49
546,56	57436,75
546,72	56919,49
546,89	56245,41
547,06	55384,10
547,23	55196,85
547,40	54817,69
547,56	54892,58
547,73	53736,36
547,90	53499,97
548,07	54124,89
548,23	54700,66
548,40	56554,36
548,57	57432,07
548,74	57528,03
548,91	57399,30
549,07	56973,32
549,24	56610,54
549,41	55927,10
549,58	55735,18
549,74	56179,88
549,91	56364,78
550,08	55583,04
550,25	54674,91
550,41	54190,42
550,58	54848,11
550,75	55332,60
550,92	56860,97
551,08	57247,16
551,25	57762,08
551,42	57771,44
551,58	57230,78
551,75	57078,64
551,92	56502,87
552,09	57270,57
552,25	57467,17
552,42	58925,33
552,59	58651,48
552,75	58820,00
552,92	58230,19
553,09	57951,66
553,26	58005,50
553,42	58452,54
553,59	59000,22
553,76	59133,63
553,92	58789,58
554,09	58527,44
554,26	57836,98
554,42	57584,20
554,59	57490,58
554,76	58127,20
554,92	58880,86
555,09	59316,20
555,26	59344,28
555,42	59150,02
555,59	57979,75
555,76	56987,36
555,92	56978,00
556,09	57984,43
556,26	58337,85
556,42	59135,98
556,59	58962,78
556,75	58869,15
556,92	57883,79
557,09	57609,95
557,25	58291,04
557,42	58649,14
557,59	59255,34
557,75	59800,69
557,92	60109,64
558,08	59550,25
558,25	59192,15
558,42	58260,62
558,58	57853,36
558,75	58120,18
558,91	58508,71
559,08	59355,99
559,25	59533,87
559,41	59311,52
559,58	59040,01
559,74	59175,76
559,91	59166,40
560,08	59917,71
560,24	60259,43
560,41	60928,83
560,57	61464,81
560,74	61928,23
560,90	61680,14
561,07	61127,77
561,24	60608,17
561,40	59571,32
561,57	59351,30
561,73	59891,97
561,90	59924,74
562,06	59667,28
562,23	59337,26
562,39	58511,05
562,56	57794,85
562,72	57785,49
562,89	58656,17
563,05	59412,16
563,22	59552,59
563,38	60781,37
563,55	60718,18
563,72	61118,41
563,88	61258,84
564,05	60619,88
564,21	60055,81
564,38	59716,43
564,54	59112,57
564,71	58934,69
564,87	58642,12
565,04	57808,89
565,20	57195,67
565,36	56973,32
565,53	57450,79
565,69	58302,74
565,86	58838,73
566,02	59215,55
566,19	60090,91
566,35	60287,52
566,52	60942,87
566,68	61181,60
566,85	61471,83
567,01	61343,10
567,18	60463,06
567,34	60128,36
567,51	59524,50
567,67	59044,69
567,83	58461,90
568,00	57623,99
568,16	57240,14
568,33	56669,05
568,49	57429,72
568,66	58260,62
568,82	59009,59
568,98	59044,69
569,15	59690,68
569,31	59597,06
569,48	60032,40
569,64	60537,96
569,80	60755,63
569,97	61155,86
570,13	60963,93
570,30	60533,28
570,46	59924,74
570,62	58859,79
570,79	58892,56
570,95	57951,66
571,12	57167,58
571,28	56587,13
571,44	56762,67
571,61	57258,87
571,77	57626,33
571,93	58831,71
572,10	58379,98
572,26	58721,70
572,43	59063,42
572,59	59594,72
572,75	60416,25
572,92	60505,19
573,08	60999,04
573,24	60938,19
573,41	61403,95
573,57	60725,20
573,73	60111,98
573,90	59491,74
574,06	58658,51
574,22	57733,99
574,39	57261,21
574,55	56790,76
574,71	57380,57
574,88	57045,88
575,04	57722,29
575,20	57921,24
575,37	57806,55
575,53	58557,86
575,69	59201,51
575,85	60069,85
576,02	60198,58
576,18	60713,50
576,34	61123,09
576,51	61242,46
576,67	61457,79
576,83	61265,86
576,99	61139,47
577,16	60383,48
577,32	58965,12
577,48	58265,30
577,64	57418,02
577,81	57052,90
577,97	57024,81
578,13	56823,53
578,30	57031,83
578,46	57560,79
578,62	57851,02
578,78	58433,81
578,94	59334,92
579,11	59594,72
579,27	60378,80
579,43	60664,35
579,59	61722,27
579,76	61836,95
579,92	61743,33
580,08	62115,48
580,24	62166,97
580,41	61797,16
580,57	61022,45
580,73	60006,65
580,89	59051,72
581,05	57757,40
581,22	57132,48
581,38	56427,98
581,54	56903,10
581,70	56879,70
581,86	57492,92
582,03	58337,85
582,19	59145,34
582,35	59915,37
582,51	60975,64
582,67	61439,06
582,83	61787,80
583,00	61893,13
583,16	62546,14
583,32	62302,72
583,48	62761,47
583,64	62276,97
583,80	62452,51
583,97	62370,60
584,13	61319,70
584,29	60683,07
584,45	59686,00
584,61	58492,33
584,77	57984,43
584,93	57762,08
585,09	57890,81
585,26	58508,71
585,42	59421,52
585,58	59510,46
585,74	60018,36
585,90	60743,92
586,06	60928,83
586,22	61488,21
586,38	61478,85
586,55	61865,04
586,71	62337,83
586,87	62560,18
587,03	63047,01
587,19	63147,65
587,35	63166,38
587,51	62791,89
587,67	61872,06
587,83	60886,70
587,99	59121,93
588,15	57621,65
588,31	57364,19
588,48	57270,57
588,64	57464,83
588,80	58279,34
588,96	59288,11
589,12	59863,88
589,28	60392,84
589,44	60601,15
589,60	60811,80
589,76	61293,95
589,92	61623,96
590,08	61867,38
590,24	62220,80
590,40	62396,34
590,56	62967,43
590,72	63241,28
590,88	63372,34
591,04	63550,23
591,20	63056,37
591,36	62213,78
591,52	60942,87
591,68	59884,95
591,84	58733,40
592,00	58302,74
592,16	58646,80
592,32	59374,71
592,48	59381,73
592,64	60495,83
592,80	60605,83
592,96	60718,18
593,12	61630,99
593,28	62007,81
593,44	62269,95
593,60	62595,29
593,76	62850,41
593,92	62815,30
594,08	63330,22
594,24	63128,93
594,40	63515,12
594,56	63547,89
594,72	63510,44
594,88	63475,33
595,04	62396,34
595,20	61127,77
595,36	59662,60
595,52	58382,32
595,67	57361,85
595,83	57481,22
595,99	57958,69
596,15	58534,46
596,31	59213,21
596,47	59550,25
596,63	60217,30
596,79	60437,31
596,95	60886,70
597,11	61317,35
597,27	61560,77
597,43	61848,66
597,58	62494,64
597,74	62417,41
597,90	62915,94
598,06	63047,01
598,22	63234,25
598,38	63632,14
598,54	63365,32
598,70	63416,82
598,86	62475,92
599,01	60591,79
599,17	59891,97
599,33	58394,03
599,49	58026,56
599,65	57719,95
599,81	58288,70
599,97	58567,23
600,12	59271,73
600,28	60001,97
600,44	60437,31
600,60	60678,39
600,76	60982,66
600,92	61675,46
601,07	61717,59
601,23	62092,07
601,39	62202,08
601,55	62368,26
601,71	62819,98
601,87	62955,73
602,02	63025,95
602,18	63297,45
602,34	63622,78
602,50	63409,79
602,66	62375,28
602,81	61663,75
602,97	60207,94
603,13	58866,81
603,29	58195,08
603,45	58042,95
603,60	57860,38
603,76	58843,41
603,92	59297,47
604,08	59800,69
604,23	60200,92
604,39	60388,16
604,55	60718,18
604,71	61167,56
604,86	61410,98
605,02	62124,84
605,18	62073,35
605,34	62520,39
605,49	62431,45
605,65	62897,22
605,81	62777,85
605,97	63182,76
606,12	63269,36
606,28	63339,58
606,44	62588,27
606,60	62211,44
606,75	60970,96
606,91	59882,61
607,07	58976,82
607,22	58038,26
607,38	58298,06
607,54	58202,10
607,70	58291,04
607,85	58829,37
608,01	59456,63
608,17	59920,05
608,32	60266,45
608,48	60624,56
608,64	61022,45
608,79	60940,53
608,95	61331,40
609,11	61591,20
609,26	61818,23
609,42	62031,22
609,58	62253,57
609,74	62513,37
609,89	62340,17
610,05	62756,78
610,20	62812,96
610,36	62365,91
610,52	61858,02
610,67	60889,04
610,83	59772,60
610,99	59096,19
611,14	58138,91
611,30	58103,80
611,46	57659,10
611,61	58106,14
611,77	58953,41
611,93	58932,35
612,08	59189,81
612,24	59561,95
612,39	59714,09
612,55	60016,02
612,71	60324,97
612,86	60598,81
613,02	60907,76
613,17	60650,30
613,33	61034,15
613,49	61277,57
613,64	61073,94
613,80	61726,95
613,95	61535,02
614,11	61600,56
614,26	61539,71
614,42	61256,50
614,58	60835,20
614,73	60322,63
614,89	59299,81
615,04	58356,58
615,20	57834,64
615,35	57762,08
615,51	57705,91
615,67	58021,88
615,82	58506,37
615,98	58461,90
616,13	58525,10
616,29	58583,61
616,44	59145,34
616,60	59269,39
616,75	59285,77
616,91	60032,40
617,06	60016,02
617,22	60004,31
617,37	60336,67
617,53	60079,21
617,68	60601,15
617,84	60755,63
617,99	60727,54
618,15	61085,64
618,30	60844,57
618,46	60446,68
618,61	60200,92
618,77	59480,03
618,92	58845,75
619,08	58003,16
619,23	57656,76
619,39	57434,41
619,54	57319,72
619,70	57403,98
619,85	57504,62
620,01	57598,24
620,16	58038,26
620,32	57776,12
620,47	58464,24
620,63	58651,48
620,78	58684,25
620,93	58485,31
621,09	59348,96
621,24	59274,07
621,40	59035,33
621,55	59613,44
621,71	59627,49
621,86	59540,89
622,01	59756,22
622,17	59842,82
622,32	60149,43
622,48	59793,67
622,63	59358,33
622,79	58960,44
622,94	58911,28
623,09	58082,73
623,25	57518,67
623,40	56762,67
623,56	56849,27
623,71	56619,90
623,86	56711,18
624,02	56743,95
624,17	56797,78
624,32	56949,92
624,48	57006,09
624,63	57282,27
624,79	57621,65
624,94	57897,83
625,09	58363,60
625,25	58255,93
625,40	57961,03
625,55	58522,76
625,71	58684,25
625,86	58920,65
626,01	59014,27
626,17	58714,68
626,32	58616,38
626,47	59210,87
626,63	59110,23
626,78	58312,11
626,93	58515,73
627,09	58260,62
627,24	57778,46
627,39	57244,82
627,55	56987,36
627,70	56224,35
627,85	56383,51
628,01	56378,82
628,16	56500,53
628,31	56425,64
628,47	56699,48
628,62	56411,59
628,77	56711,18
628,92	56603,52
629,08	56776,72
629,23	56914,81
629,38	56917,15
629,54	57205,03
629,69	57389,94
629,84	57256,53
629,99	57638,03
630,15	57467,17
630,30	57918,90
630,45	57909,53
630,60	58305,09
630,76	58000,82
630,91	57897,83
631,06	57923,58
631,21	57401,64
631,37	57469,51
631,52	57155,88
631,67	56385,85
631,82	56523,94
631,98	56449,04
632,13	56334,35
632,28	55852,20
632,43	55803,05
632,58	56144,77
632,74	56114,34
632,89	56018,38
633,04	55625,17
633,19	55676,66
633,34	56226,69
633,50	56324,99
633,65	56154,13
633,80	56268,82
633,95	56456,06
634,10	56816,50
634,26	56786,08
634,41	56975,66
634,56	56996,73
634,71	56903,10
634,86	56989,70
635,01	57134,82
635,17	56875,02
635,32	56460,74
635,47	57090,35
635,62	56556,70
635,77	55992,64
635,92	55922,42
636,07	55894,33
636,23	55316,22
636,38	55358,35
636,53	55150,04
636,68	55248,35
636,83	54962,80
636,98	54548,53
637,13	54869,18
637,28	55248,35
637,44	55126,64
637,59	55016,63
637,74	54953,44
637,89	55332,60
638,04	55391,12
638,19	55723,47
638,34	55861,57
638,49	55859,23
638,64	55646,24
638,79	55423,89
638,95	55529,21
639,10	55501,12
639,25	55943,48
639,40	55859,23
639,55	56224,35
639,70	55767,94
639,85	55749,22
640,00	55344,31
640,15	55143,02
640,30	55468,36
640,45	55044,72
640,60	54897,27
640,75	54223,19
640,90	54122,55
641,05	54127,23
641,20	54017,22
641,35	53825,30
641,50	54042,97
641,65	54616,40
641,80	54178,72
641,95	54389,37
642,11	54417,46
642,26	54621,08
642,41	54274,68
642,56	54527,46
642,71	54370,64
642,86	54698,32
643,01	54365,96
643,16	54731,09
643,31	54450,22
643,46	54780,24
643,61	54901,95
643,75	55374,73
643,90	54450,22
644,05	54995,57
644,20	54930,03
644,35	54487,67
644,50	54635,13
644,65	54267,66
644,80	53886,15
644,95	53705,93
645,10	53588,91
645,25	53813,60
645,40	53298,68
645,55	53195,70
645,70	53034,20
645,85	53027,18
646,00	52917,17
646,15	52622,26
646,30	52893,77
646,45	53394,64
646,60	53081,01
646,74	53111,44
646,89	53542,10
647,04	52846,96
647,19	53542,10
647,34	53205,06
647,49	53485,92
647,64	53514,01
647,79	53361,87
647,94	53366,55
648,09	53200,38
648,23	53289,32
648,38	53279,96
648,53	53429,75
648,68	53422,73
648,83	52816,53
648,98	53354,85
649,13	52804,83
649,28	53090,37
649,42	52736,95
649,57	52657,37
649,72	52065,22
649,87	52360,12
650,02	51976,28
650,17	52128,41
650,32	51894,36
650,46	51999,68
650,61	51484,76
650,76	52051,17
650,91	51791,37
651,06	52065,22
651,21	51786,69
651,35	52027,77
651,50	52193,95
651,65	51964,57
651,80	51629,88
651,95	51735,20
652,09	51650,94
652,24	51964,57
652,39	51632,22
652,54	51966,91
652,69	52051,17
652,83	51723,50
652,98	52119,05
653,13	52025,43
653,28	51952,87
653,43	51468,38
653,57	50934,74
653,72	51646,26
653,87	51356,03
654,02	51173,47
654,16	50768,56
654,31	50628,13
654,46	50284,07
654,61	50700,68
654,75	50681,96
654,90	50085,12
655,05	50232,58
655,20	50321,52
655,34	50408,12
655,49	50047,68
655,64	50092,15
655,79	50628,13
655,93	49813,62
656,08	50597,70
656,23	50475,99
656,38	50094,49
656,52	50295,77
656,67	49734,04
656,82	50387,05
656,96	50122,57
657,11	50017,25
657,26	49984,48
657,40	50010,23
657,55	49984,48
657,70	50239,60
657,84	49867,45
657,99	49797,24
658,14	50351,94
658,29	49542,12
658,43	48954,64
658,58	49333,81
658,73	49038,90
658,87	49184,02
659,02	49558,50
659,16	49120,82
659,31	48428,02
659,46	48882,09
659,60	49144,23
659,75	48437,39
659,90	48865,70
660,04	48282,91
660,19	48385,89
660,34	48247,80
660,48	48252,48
660,63	48423,34
660,77	47920,13
660,92	48114,39
661,07	48413,98
661,21	47454,36
661,36	47669,69
661,51	47725,86
661,65	47878,00
661,80	47978,64
661,94	47798,42
662,09	48250,14
662,23	47487,13
662,38	47838,21
662,53	47555,00
662,67	47449,68
662,82	47978,64
662,96	47849,91
663,11	47503,51
663,26	47278,82
663,40	47021,36
663,55	47047,11
663,69	47302,23
663,84	47107,96
663,98	46815,40
664,13	46457,29
664,27	46574,32
664,42	46848,16
664,56	46590,70
664,71	46218,56
664,86	46251,33
665,00	46113,23
665,15	46085,15
665,29	46417,50
665,44	45914,29
665,58	45902,59
665,73	46199,83
665,87	45848,75
666,02	45907,27
666,16	45801,94
666,31	45350,22
666,45	45532,78
666,60	45897,91
666,74	45794,92
666,89	45617,04
667,03	45500,01
667,18	45085,74
667,32	45516,40
667,47	45326,81
667,61	45284,68
667,75	45495,33
667,90	45581,93
668,04	45242,56
668,19	44889,13
668,33	44938,29
668,48	44865,73
668,62	44655,08
668,77	44942,97
668,91	43889,73
669,06	44135,48
669,20	44264,21
669,34	44095,69
669,49	43981,01
669,63	43578,43
669,78	44280,60
669,92	43775,04
670,07	43821,85
670,21	43920,15
670,35	43445,02
670,50	43622,90
670,64	43386,51
670,79	43679,08
670,93	43309,27
671,07	43222,67
671,22	43557,37
671,36	43669,72
671,50	43356,08
671,65	43491,83
671,79	42988,62
671,94	43358,42
672,08	43129,05
672,22	43152,46
672,37	43178,20
672,51	42630,52
672,65	42700,73
672,80	42513,49
672,94	42735,84
673,08	42234,97
673,23	42380,08
673,37	42218,58
673,52	42284,12
673,66	42113,26
673,80	41916,65
673,95	41801,97
674,09	42021,98
674,23	41614,72
674,37	41614,72
674,52	42031,34
674,66	41504,72
674,80	41790,27
674,95	41446,21
675,09	41378,33
675,23	41181,73
675,38	41017,89
675,52	40823,62
675,66	41427,48
675,80	40903,20
675,95	41783,24
676,09	41097,47
676,23	40739,36
676,38	41090,44
676,52	40877,46
676,66	40865,75
676,80	40739,36
676,95	40402,33
677,09	41174,70
677,23	40538,08
677,37	40362,54
677,52	40367,22
677,66	40156,57
677,80	40060,61
677,94	40179,98
678,09	40084,01
678,23	39599,52
678,37	39786,77
678,51	39613,57
678,66	39838,26
678,80	39868,69
678,94	39281,21
679,08	39482,50
679,22	39147,80
679,37	39489,52
679,51	39674,42
679,65	39133,76
679,79	38890,34
679,93	39323,34
680,08	38983,96
680,22	38895,02
680,36	38974,60
680,50	38466,70
680,64	38801,40
680,78	39044,82
680,93	38747,57
681,07	38164,78
681,21	38588,41
681,35	38478,41
681,49	38464,36
681,63	38005,62
681,78	38230,31
681,92	38092,22
682,06	38094,56
682,20	38284,14
682,34	37645,18
682,48	38211,59
682,62	38213,93
682,77	37589,00
682,91	37647,52
683,05	37184,09
683,19	37722,41
683,33	37394,74
683,47	37347,93
683,61	37006,21
683,75	37263,67
683,89	37022,59
684,04	36718,32
684,18	36800,24
684,32	36851,73
684,46	36989,83
684,60	36973,44
684,74	36355,54
684,88	36219,79
685,02	36613,00
685,16	36320,43
685,30	36287,67
685,44	36203,41
685,58	36123,83
685,72	35784,45
685,87	36184,68
686,01	36025,53
686,15	35693,17
686,29	35629,98
686,43	35105,70
686,57	35990,42
686,71	35365,49
686,85	35700,19
686,99	35592,53
687,13	35419,33
687,27	35246,13
687,41	35009,73
687,55	34969,94
687,69	34691,42
687,83	34583,76
687,97	34190,55
688,11	34478,43
688,25	34267,78
688,39	33703,71
688,53	33975,22
688,67	34373,11
688,81	33724,78
688,95	33886,28
689,09	33570,30
689,23	33090,49
689,37	33027,30
689,51	32886,87
689,65	32671,54
689,79	33106,88
689,93	32760,48
690,07	32446,85
690,21	32481,95
690,35	32222,16
690,49	32011,51
690,63	31751,71
690,76	32355,57
690,90	31358,50
691,04	31648,72
691,18	31349,14
691,32	31197,00
691,46	30480,80
691,60	30623,57
691,74	30675,06
691,88	30419,94
692,02	30405,90
692,16	30125,04
692,30	29799,70
692,44	29605,44
692,57	29668,63
692,71	29418,19
692,85	29308,19
692,99	28985,19
693,13	28720,71
693,27	28168,35
693,41	28456,23
693,55	28521,77
693,69	28182,39
693,82	27611,30
693,96	27786,84
694,10	27503,64
694,24	26869,35
694,38	27391,29
694,52	27321,07
694,66	26810,84
694,79	26808,50
694,93	26389,54
695,07	26574,44
695,21	26139,10
695,35	25759,94
695,49	25769,30
695,62	25876,96
695,76	25523,54
695,90	25078,84
696,04	24746,48
696,18	24800,32
696,31	24680,95
696,45	24355,61
696,59	24484,34
696,73	23571,54
696,87	23892,19
697,00	23674,52
697,14	23578,56
697,28	23386,63
697,42	22934,91
697,56	22932,57
697,69	22998,10
697,83	22824,90
697,97	22785,12
698,11	22424,67
698,24	22616,60
698,38	22075,93
698,52	22099,34
698,66	21914,44
698,80	21156,10
698,93	21348,03
699,07	21380,79
699,21	21043,76
699,34	20762,89
699,48	20533,52
699,62	20325,21
699,76	20472,67
699,89	20252,66
700,03	20208,19
700,17	20009,24
700,31	19829,02
700,44	19688,59
700,58	19215,80
700,72	19061,32
700,85	19126,86
700,99	18906,85
701,13	18684,50
701,26	18349,80
701,40	18328,74
701,54	18108,72
701,68	18094,68
701,81	17848,93
701,95	17783,39
702,09	17429,97
702,22	17664,02
702,36	17259,11
702,50	17018,04
702,63	16699,72
702,77	16620,14
702,91	16627,17
703,04	16180,12
703,18	16423,54
703,31	16116,93
703,45	15903,94
703,59	15836,06
703,72	15709,68
703,86	15712,02
704,00	15468,60
704,13	15564,56
704,27	15082,41
704,40	15023,90
704,54	14689,20
704,68	14586,22
704,81	14595,58
704,95	14307,69
705,08	14253,86
705,22	14106,41
705,36	13776,39
705,49	13767,03
705,63	13846,61
705,76	13582,13
705,90	13476,80
706,04	13327,01
706,17	13205,30
706,31	13032,10
706,44	12964,23
706,58	12805,07
706,71	13067,21
706,85	12383,77
706,99	12416,54
707,12	12608,47
707,26	12208,23
707,39	12184,83
707,53	11838,43
707,66	11946,09
707,80	11660,55
707,93	11786,94
708,07	11564,59
708,20	11454,58
708,34	11403,09
708,47	11049,67
708,61	11028,60
708,74	11040,31
708,88	10930,30
709,01	10771,15
709,15	10558,16
709,28	10527,73
709,42	10370,91
709,55	10267,93
709,69	10073,67
709,82	9963,66
709,96	10129,84
710,09	9757,69
710,23	9717,90
710,36	9638,33
710,50	9451,08
710,63	9458,10
710,77	9411,29
710,90	9343,42
711,04	9198,31
711,17	9259,16
711,30	8844,88
711,44	8884,67
711,57	8863,61
711,71	8664,66
711,84	8594,45
711,98	8479,76
712,11	8304,22
712,24	8271,45
712,38	8142,72
712,51	8128,68
712,65	7920,37
712,78	7889,95
712,92	7836,11
713,05	7693,34
713,18	7662,91
713,32	7644,19
713,45	7644,19
713,59	7442,90
713,72	7215,87
713,85	7243,96
713,99	7225,23
714,12	7162,04
714,25	7089,48
714,39	6899,90
714,52	6902,24
714,66	6960,75
714,79	6834,36
714,92	6656,48
715,06	6560,52
715,19	6644,78
715,32	6464,56
715,46	6452,86
715,59	6377,96
715,72	6375,62
715,86	6239,87
715,99	6106,46
716,12	6094,76
716,26	6167,31
716,39	6015,18
716,52	5987,09
716,66	5832,62
716,79	5771,76
716,92	5727,29
717,05	5598,56
717,19	5605,58
717,32	5479,19
717,45	5521,32
717,59	5380,89
717,72	5423,02
717,85	5247,48
717,98	5198,33
718,12	5181,95
718,25	5102,37
718,38	5121,09
718,52	5041,51
718,65	5020,45
718,78	4975,98
718,91	4863,63
719,05	4772,35
719,18	4706,82
719,31	4748,95
719,44	4767,67
719,58	4617,88
719,71	4622,56
719,84	4545,32
719,97	4550,00
720,10	4435,32
720,24	4308,93
720,37	4402,55
720,50	4383,82
720,63	4418,93
720,77	4301,90
720,90	4212,96
721,03	4262,12
721,16	4109,98
721,29	3969,55
721,43	4025,72
721,56	4014,02
721,69	3925,08
721,82	3988,27
721,95	3943,80
722,08	3925,08
722,22	3684,00
722,35	3801,03
722,48	3676,98
722,61	3723,79
722,74	3676,98
722,87	3681,66
723,01	3702,73
723,14	3529,53
723,27	3571,66
723,40	3517,83
723,53	3471,01
723,66	3527,19
723,79	3447,61
723,93	3339,94
724,06	3335,26
724,19	3391,44
724,32	3239,30
724,45	3302,50
724,58	3218,24
724,71	3258,03
724,84	3267,39
724,97	3251,00
725,11	3169,09
725,24	3159,72
725,37	3155,04
725,50	3176,11
725,63	3145,68
725,76	2993,55
725,89	3129,30
726,02	3007,59
726,15	3094,19
726,28	2958,44
726,41	2850,77
726,54	2850,77
726,67	2850,77
>>>>>End Processed Spectral Data<<<<<
