SpectraSuite Datei
++++++++++++++++++++++++++++++++++++
Datum: Fri Jan 02 21:29:20 CET 2004
Benutzer: Student
Dark-Spektrum vorhanden: Ja
Referenz-Spektrum vorhanden: Nein
Zahl der probierten Teilspektren: 1
Spektrometer: USB2+H15728
Integrationszeit (usec): 100000 (USB2+H15728)
Spektren Durchschnitt berechnet: 1 (USB2+H15728)
Boxcar Glättung: 0 (USB2+H15728)
Dunkelstromkorrektur: Nein (USB2+H15728)
Puls/Lampe aktiviert: Nein (USB2+H15728)
Correct for Detector Non-linearity: Nein (USB2+H15728)
Streulichtkorrektur: Nein (USB2+H15728)
Anzahl Pixel in verarbeitetem Spektrum: 2048
>>>>>Begin Processed Spectral Data<<<<<
394,80	1341,13
394,99	1341,13
395,18	1341,13
395,37	1320,06
395,56	1359,85
395,75	1315,38
395,94	1315,38
396,13	1327,08
396,32	1336,45
396,51	1380,92
396,70	1383,26
396,89	1401,98
397,08	1390,28
397,27	1544,75
397,46	1432,41
397,65	1416,02
397,84	1481,56
398,03	1495,60
398,23	1493,26
398,42	1540,07
398,61	1565,82
398,80	1497,94
398,99	1598,59
399,18	3021,63
399,37	6906,92
399,56	7094,16
399,75	7288,43
399,94	7431,20
400,13	7372,69
400,31	7452,27
400,50	7400,77
400,69	7463,97
400,88	7618,44
401,07	7632,49
401,26	7520,14
401,45	7880,58
401,64	7775,26
401,83	7922,71
402,02	8105,28
402,21	8124,00
402,40	7939,10
402,59	8102,93
402,78	7889,95
402,97	8189,53
403,16	8423,59
403,35	8423,59
403,54	8444,65
403,73	8407,20
403,92	8545,30
404,11	8575,72
404,30	8697,43
404,49	8538,27
404,68	8641,26
404,86	8706,79
405,05	8737,22
405,24	8933,82
405,43	8809,78
405,62	9181,92
405,81	9132,77
406,00	9142,13
406,19	9221,71
406,38	9320,01
406,57	9380,87
406,76	9312,99
406,94	9284,91
407,13	9521,30
407,32	9650,03
407,51	9645,35
407,70	9848,97
407,89	9734,29
408,08	9905,15
408,27	9970,68
408,46	9930,89
408,64	9762,37
408,83	10134,52
409,02	10176,65
409,21	10359,21
409,40	10328,78
409,59	10354,53
409,78	10513,69
409,97	10436,45
410,15	10530,07
410,34	10509,01
410,53	10679,86
410,72	10714,97
410,91	10998,18
411,10	11122,23
411,28	11143,29
411,47	11241,59
411,66	11077,76
411,85	11143,29
412,04	11375,00
412,23	11407,77
412,41	11676,93
412,60	11534,16
412,79	11520,12
412,98	11609,06
413,17	11644,17
413,36	11948,43
413,54	11772,89
413,73	11927,37
413,92	12100,57
414,11	12238,66
414,30	12271,43
414,48	12561,66
414,67	12421,22
414,86	12489,10
415,05	12510,16
415,24	12645,91
415,42	12449,31
415,61	12704,43
415,80	13001,68
415,99	12629,53
416,17	12903,37
416,36	12849,54
416,55	13261,48
416,74	13027,42
416,93	13062,53
417,11	13364,46
417,30	13144,45
417,49	12999,34
417,68	13504,89
417,86	13181,90
418,05	13518,93
418,24	13610,22
418,43	13455,74
418,61	13521,27
418,80	13816,18
418,99	13467,44
419,18	13862,99
419,36	13638,30
419,55	13884,06
419,74	14022,15
419,92	13846,61
420,11	13752,99
420,30	13874,70
420,49	13975,34
420,67	14239,82
420,86	14223,44
421,05	14415,36
421,23	14319,40
421,42	14607,28
421,61	14452,81
421,80	14546,43
421,98	14766,44
422,17	14438,76
422,36	14689,20
422,54	14492,60
422,73	14576,86
422,92	15279,02
423,10	15037,94
423,29	14824,95
423,48	14871,76
423,66	14927,94
423,85	14993,47
424,04	15377,32
424,22	14618,99
424,41	15164,33
424,60	14988,79
424,78	15286,04
424,97	15538,82
425,16	15487,32
425,34	15054,33
425,53	15222,84
425,72	15791,59
425,90	15592,65
426,09	15992,88
426,28	15903,94
426,46	15829,04
426,65	15880,53
426,84	15700,31
427,02	16147,36
427,21	15632,44
427,39	15999,90
427,58	15995,22
427,77	16114,59
427,95	16217,57
428,14	16374,39
428,33	16650,57
428,51	16390,77
428,70	16191,83
428,88	16519,50
429,07	16493,76
429,26	16783,98
429,44	16706,74
429,63	16685,68
429,81	16666,95
430,00	16655,25
430,18	17020,38
430,37	16809,73
430,56	17095,27
430,74	17074,21
430,93	17135,06
431,11	17362,09
431,30	17514,23
431,49	17336,35
431,67	17518,91
431,86	17774,03
432,04	17341,03
432,23	17869,99
432,41	17549,34
432,60	18066,60
432,78	17685,09
432,97	17951,91
433,16	17987,02
433,34	18169,58
433,53	18195,32
433,71	18403,63
433,90	18513,64
434,08	18614,28
434,27	18981,74
434,45	18628,32
434,64	18754,71
434,82	18827,27
435,01	19037,92
435,19	18960,68
435,38	19019,19
435,56	19201,76
435,75	19295,38
435,93	19435,81
436,12	18988,77
436,30	19094,09
436,49	19360,91
436,67	19658,16
436,86	19499,00
437,04	19927,32
437,23	19704,97
437,41	19873,49
437,60	20194,14
437,78	19702,63
437,97	19775,19
438,15	20025,62
438,34	20449,26
438,52	20285,42
438,71	20549,90
438,89	20783,96
439,08	20465,64
439,26	20201,16
439,45	20467,98
439,63	20577,99
439,81	20519,48
440,00	20512,46
440,18	20781,62
440,37	20397,77
440,55	20790,98
440,74	20744,17
440,92	20732,47
441,11	20807,36
441,29	20819,07
441,47	21177,17
441,66	20734,81
441,84	20933,75
442,03	20627,14
442,21	21003,97
442,39	21397,18
442,58	20903,32
442,76	21352,71
442,95	21301,22
443,13	21142,06
443,32	20809,70
443,50	21479,10
443,68	20912,69
443,87	20592,03
444,05	21277,81
444,23	21207,59
444,42	20432,88
444,60	20868,22
444,79	20821,41
444,97	21195,89
445,15	21099,93
445,34	20847,15
445,52	21067,16
445,71	20858,85
445,89	21165,46
446,07	20889,28
446,26	20437,56
446,44	21027,37
446,62	20678,63
446,81	20531,18
446,99	20826,09
447,17	20896,30
447,36	20390,75
447,54	20673,95
447,72	20231,59
447,91	20526,50
448,09	20940,77
448,27	20673,95
448,46	20666,93
448,64	20383,73
448,82	20470,33
449,01	20606,08
449,19	20577,99
449,37	20692,68
449,56	20507,77
449,74	20306,49
449,92	20477,35
450,11	20512,46
450,29	20182,44
450,47	20746,51
450,66	20112,22
450,84	20044,35
451,02	20458,62
451,20	20182,44
451,39	20414,15
451,57	20203,50
451,75	20226,91
451,94	20463,30
452,12	20322,87
452,30	20133,29
452,48	20034,99
452,67	19854,76
452,85	20060,73
453,03	20283,08
453,21	19817,32
453,40	20187,12
453,58	20453,94
453,76	19803,27
453,94	19960,09
454,13	19957,75
454,31	20072,43
454,49	20009,24
454,67	20074,77
454,86	19887,53
455,04	20308,83
455,22	19932,00
455,40	19913,28
455,59	19810,29
455,77	19908,60
455,95	20065,41
456,13	20077,12
456,32	20100,52
456,50	20077,12
456,68	19908,60
456,86	19754,12
457,04	19735,40
457,23	20187,12
457,41	19494,32
457,59	19843,06
457,77	20524,16
457,95	19681,56
458,14	19784,55
458,32	20238,61
458,50	19714,33
458,68	19805,61
458,86	20006,90
459,04	20067,75
459,23	19742,42
459,41	20011,58
459,59	19885,19
459,77	19803,27
459,95	19922,64
460,13	20587,35
460,32	20226,91
460,50	20079,46
460,68	20175,42
460,86	20365,00
461,04	20168,40
461,22	19903,92
461,41	20367,34
461,59	20126,27
461,77	19978,81
461,95	20360,32
462,13	20432,88
462,31	20144,99
462,49	20577,99
462,68	20458,62
462,86	20140,31
463,04	20390,75
463,22	20542,88
463,40	20585,01
463,58	20311,17
463,76	20755,87
463,94	20559,27
464,12	20884,60
464,31	20835,45
464,49	20697,36
464,67	20737,15
464,85	20585,01
465,03	20608,42
465,21	20781,62
465,39	20746,51
465,57	20826,09
465,75	20720,76
465,93	20683,31
466,11	20297,13
466,29	20549,90
466,48	20650,55
466,66	20437,56
466,84	20505,43
467,02	20182,44
467,20	20189,46
467,38	20453,94
467,56	20215,21
467,74	20493,73
467,92	20126,27
468,10	20039,67
468,28	20226,91
468,46	20147,33
468,64	19988,18
468,82	19908,60
469,00	20032,65
469,18	19513,05
469,36	19850,08
469,54	20112,22
469,72	19885,19
469,90	20116,90
470,08	19733,06
470,26	19473,26
470,44	20037,33
470,62	19386,66
470,80	19564,54
470,98	19700,29
471,16	19601,99
471,34	19646,46
471,52	19562,20
471,70	19328,14
471,88	19850,08
472,06	19686,25
472,24	19639,44
472,42	19173,67
472,60	19578,58
472,78	19381,98
472,96	19286,01
473,14	19501,34
473,32	19300,06
473,50	19438,15
473,68	19077,71
473,86	19311,76
474,04	19360,91
474,22	19255,59
474,40	19346,87
474,58	19452,19
474,76	19110,47
474,94	18946,64
475,12	18956,00
475,30	19133,88
475,48	19005,15
475,66	19037,92
475,84	19321,12
476,02	19014,51
476,19	18951,32
476,37	19115,16
476,55	18621,30
476,73	18810,89
476,91	18899,83
477,09	18342,78
477,27	18822,59
477,45	18466,83
477,63	18789,82
477,81	18663,43
477,99	18726,63
478,16	18532,36
478,34	18499,59
478,52	18431,72
478,70	18345,12
478,88	18398,95
479,06	18452,78
479,24	18314,69
479,42	18162,56
479,60	18157,88
479,77	18328,74
479,95	18223,41
480,13	18277,24
480,31	18085,32
480,49	17919,14
480,67	18174,26
480,85	18150,85
481,02	17809,14
481,20	18047,87
481,38	17797,43
481,56	17869,99
481,74	17685,09
481,92	17635,94
482,10	17479,12
482,27	17542,32
482,45	17591,47
482,63	17783,39
482,81	17619,55
482,99	17341,03
483,17	17743,60
483,34	17638,28
483,52	17785,73
483,70	17167,83
483,88	17411,25
484,06	17490,82
484,23	17525,93
484,41	17034,42
484,59	17289,54
484,77	17057,82
484,95	17179,53
485,12	17172,51
485,30	16748,87
485,48	16992,29
485,66	16898,67
485,84	17048,46
486,01	16879,94
486,19	16285,45
486,37	17088,25
486,55	16706,74
486,72	16664,61
486,90	16643,55
487,08	16692,70
487,26	16786,32
487,43	16435,24
487,61	16519,50
487,79	16233,96
487,97	16346,30
488,14	16650,57
488,32	16269,06
488,50	16311,19
488,68	16142,67
488,85	16341,62
489,03	16084,16
489,21	15803,30
489,39	16173,10
489,56	16002,24
489,74	16130,97
489,92	15922,66
490,10	15934,37
490,27	15974,16
490,45	15889,90
490,63	15658,18
490,80	15985,86
490,98	15859,47
491,16	15714,36
491,33	15634,78
491,51	15704,99
491,69	15695,63
491,87	15286,04
492,04	15435,83
492,22	15559,88
492,40	15393,70
492,57	15594,99
492,75	15461,58
492,93	15246,25
493,10	15159,65
493,28	15438,17
493,46	15389,02
493,63	15089,43
493,81	15208,80
493,99	15199,44
494,16	15145,61
494,34	15028,58
494,52	14981,77
494,69	15070,71
494,87	15066,03
495,05	14874,10
495,22	14963,04
495,40	14867,08
495,57	14611,96
495,75	14885,81
495,93	14560,47
496,10	14511,32
496,28	14523,02
496,46	14586,22
496,63	14693,88
496,81	14621,33
496,98	14771,12
497,16	14501,96
497,34	14415,36
497,51	14382,59
497,69	14523,02
497,86	14698,56
498,04	14525,36
498,22	14377,91
498,39	14288,97
498,57	14303,01
498,74	14497,28
498,92	14394,29
499,10	14478,55
499,27	14483,24
499,45	14377,91
499,62	14373,23
499,80	14413,02
499,97	14796,87
500,15	14757,08
500,33	14979,43
500,50	14885,81
500,68	15302,42
500,85	15286,04
501,03	15274,34
501,20	15803,30
501,38	15693,29
501,55	15740,10
501,73	15929,69
501,90	15908,62
502,08	16184,80
502,25	16629,51
502,43	16685,68
502,61	16823,77
502,78	17076,55
502,96	17338,69
503,13	17575,08
503,31	17666,36
503,48	17776,37
503,66	18010,42
503,83	18146,17
504,01	18530,02
504,18	18768,76
504,36	19426,45
504,53	19211,12
504,71	19864,13
504,88	19714,33
505,06	19571,56
505,23	19992,86
505,41	20467,98
505,58	20762,89
505,76	20582,67
505,93	20999,29
506,10	21832,52
506,28	21635,91
506,45	21661,66
506,63	22286,58
506,80	22918,53
506,98	22946,61
507,15	23042,57
507,33	23201,73
507,50	23604,30
507,68	24175,39
507,85	24182,42
508,02	24655,20
508,20	24978,20
508,37	26305,28
508,55	26078,25
508,72	26405,92
508,90	26228,04
509,07	26962,97
509,24	27791,52
509,42	27498,95
509,59	27639,39
509,77	27623,00
509,94	27728,33
510,12	28285,37
510,29	29294,14
510,46	29397,13
510,64	28821,36
510,81	28486,66
510,98	29362,02
511,16	29809,06
511,33	30178,87
511,51	30258,45
511,68	30497,18
511,85	30782,73
512,03	31555,10
512,20	31997,46
512,38	32517,06
512,55	32765,16
512,72	32224,50
512,90	32322,80
513,07	32973,47
513,24	33647,54
513,42	34565,03
513,59	34766,32
513,76	34422,26
513,94	34569,71
514,11	35264,85
514,28	36865,78
514,46	37043,66
514,63	36961,74
514,80	37141,96
514,98	36795,56
515,15	36018,50
515,32	36566,19
515,50	36458,52
515,67	37476,66
515,84	37968,17
516,02	37816,04
516,19	37560,92
516,36	37207,50
516,54	37111,53
516,71	37591,34
516,88	39452,07
517,05	40016,14
517,23	40098,06
517,40	39674,42
517,57	38335,63
517,75	38108,60
517,92	38038,39
518,09	38792,04
518,26	40067,63
518,44	40601,27
518,61	40636,38
518,78	40311,05
518,96	39608,89
519,13	40044,23
519,30	40737,02
519,47	41666,22
519,65	42576,69
519,82	43112,67
519,99	43005,00
520,16	42958,19
520,34	41296,41
520,51	40631,70
520,68	41291,73
520,85	41745,80
521,03	43295,23
521,20	43739,93
521,37	44252,51
521,54	44781,47
521,71	43262,46
521,89	42497,11
522,06	42178,79
522,23	42625,84
522,40	44266,55
522,57	44847,00
522,75	45904,93
522,92	46677,30
523,09	46710,07
523,26	45003,82
523,43	43875,68
523,61	42927,77
523,78	44535,71
523,95	45703,64
524,12	46036,00
524,29	47082,22
524,47	47140,73
524,64	47449,68
524,81	47248,39
524,98	45546,82
525,15	45247,24
525,32	44746,36
525,50	46148,34
525,67	47103,28
525,84	47468,40
526,01	48198,65
526,18	49202,74
526,35	49485,95
526,52	48898,47
526,70	46852,84
526,87	46370,69
527,04	45120,85
527,21	47002,64
527,38	48371,85
527,55	49179,34
527,72	49401,69
527,90	50761,54
528,07	50394,07
528,24	49579,57
528,41	48753,36
528,58	47264,78
528,75	47501,17
528,92	48765,06
529,09	49640,42
529,26	50157,68
529,43	51358,38
529,61	51957,55
529,78	52303,95
529,95	52112,03
530,12	52371,83
530,29	51503,49
530,46	50520,46
530,63	50674,94
530,80	50438,54
530,97	51133,68
531,14	52215,01
531,31	52332,04
531,48	52570,77
531,65	53886,15
531,83	53619,33
532,00	53991,48
532,17	51777,33
532,34	50277,05
532,51	50239,60
532,68	50326,20
532,85	51278,80
533,02	53038,88
533,19	53682,53
533,36	53965,73
533,53	54209,15
533,70	54066,38
533,87	54375,33
534,04	52659,71
534,21	51313,90
534,38	51227,31
534,55	51454,34
534,72	52725,25
534,89	53083,35
535,06	53743,38
535,23	54684,28
535,40	54492,35
535,57	54337,88
535,74	54742,79
535,91	54939,39
536,08	53818,28
536,25	52683,12
536,42	51650,94
536,59	51608,81
536,76	52786,10
536,93	53354,85
537,10	53972,75
537,27	53759,76
537,44	53731,68
537,61	54630,44
537,78	55468,36
537,95	56095,62
538,12	55604,11
538,29	54035,95
538,45	52987,39
538,62	51838,18
538,79	51072,83
538,96	51285,82
539,13	52713,55
539,30	53212,08
539,47	54094,46
539,64	54988,55
539,81	56053,49
539,98	56512,23
540,15	56264,14
540,32	55636,87
540,49	53640,40
540,66	51700,09
540,82	50492,38
540,99	50691,32
541,16	52233,74
541,33	52956,96
541,50	54340,22
541,67	54908,97
541,84	56278,18
542,01	56886,72
542,18	56996,73
542,34	56519,26
542,51	55819,44
542,68	54113,19
542,85	52346,08
543,02	50983,89
543,19	51217,94
543,36	52282,89
543,53	53743,38
543,69	54925,35
543,86	56088,60
544,03	56919,49
544,20	56956,94
544,37	57013,11
544,54	56699,48
544,70	55341,97
544,87	54181,06
545,04	53371,24
545,21	52643,33
545,38	52128,41
545,55	51971,60
545,71	53448,47
545,88	54473,63
546,05	55730,50
546,22	56549,68
546,39	57123,11
546,56	57396,96
546,72	56608,20
546,89	56165,84
547,06	55388,78
547,23	55423,89
547,40	55255,37
547,56	54852,80
547,73	53834,66
547,90	53698,91
548,07	53996,16
548,23	54724,07
548,40	56322,65
548,57	56978,00
548,74	57387,60
548,91	57661,44
549,07	57474,20
549,24	56966,30
549,41	55800,71
549,58	55407,50
549,74	55978,59
549,91	56390,53
550,08	55877,95
550,25	55185,15
550,41	54248,94
550,58	54808,32
550,75	55936,46
550,92	57261,21
551,08	57158,22
551,25	58019,54
551,42	57698,89
551,58	57298,65
551,75	56956,94
551,92	56566,07
552,09	57301,00
552,25	57989,11
552,42	58314,45
552,59	58670,21
552,75	58391,68
552,92	58262,96
553,09	57827,62
553,26	57715,27
553,42	58571,91
553,59	59126,61
553,76	58969,80
553,92	59187,47
554,09	58550,84
554,26	57970,39
554,42	57401,64
554,59	57422,70
554,76	58412,75
554,92	58932,35
555,09	59629,83
555,26	59365,35
555,42	58733,40
555,59	57825,28
555,76	57167,58
555,92	57366,53
556,09	57869,75
556,26	58248,91
556,42	59119,59
556,59	59096,19
556,75	58466,58
556,92	58162,31
557,09	57642,71
557,25	58464,24
557,42	59032,99
557,59	59257,68
557,75	59915,37
557,92	60163,47
558,08	59723,45
558,25	59096,19
558,42	58309,77
558,58	58075,71
558,75	58202,10
558,91	58621,06
559,08	59505,78
559,25	59618,13
559,41	59484,72
559,58	59143,00
559,74	59196,83
559,91	59536,21
560,08	59983,25
560,24	60151,77
560,41	60942,87
560,57	61460,13
560,74	61766,74
560,90	61525,66
561,07	60912,44
561,24	60287,52
561,40	59636,85
561,57	59461,31
561,73	59800,69
561,90	60046,44
562,06	59627,49
562,23	59355,99
562,39	58094,44
562,56	57649,74
562,72	58202,10
562,89	58948,73
563,05	59487,06
563,22	59496,42
563,38	60619,88
563,55	60610,51
563,72	61090,32
563,88	61293,95
564,05	60926,49
564,21	60030,06
564,38	59798,35
564,54	59152,36
564,71	59128,95
564,87	58679,57
565,04	58103,80
565,20	57137,16
565,36	57216,74
565,53	57340,78
565,69	58555,52
565,86	58656,17
566,02	59573,66
566,19	59763,24
566,35	60474,76
566,52	60910,10
566,68	61219,05
566,85	61471,83
567,01	61378,21
567,18	60573,06
567,34	60093,25
567,51	59138,32
567,67	58759,15
567,83	58855,11
568,00	57502,28
568,16	57219,08
568,33	57242,48
568,49	57801,87
568,66	58330,83
568,82	59040,01
568,98	59124,27
569,15	59765,58
569,31	59796,01
569,48	60142,41
569,64	60692,43
569,80	60926,49
569,97	61031,81
570,13	60963,93
570,30	60704,13
570,46	59861,54
570,62	59042,35
570,79	58731,06
570,95	57970,39
571,12	57368,87
571,28	56484,15
571,44	56645,65
571,61	57366,53
571,77	57785,49
571,93	58417,43
572,10	58684,25
572,26	58880,86
572,43	59238,96
572,59	59847,50
572,75	60552,00
572,92	60858,61
573,08	60874,99
573,24	60989,68
573,41	60928,83
573,57	60636,26
573,73	60140,07
573,90	59388,75
574,06	58599,99
574,22	57797,19
574,39	57406,32
574,55	57403,98
574,71	57453,13
574,88	57120,77
575,04	57469,51
575,20	57836,98
575,37	57773,78
575,53	58534,46
575,69	59192,15
575,85	59992,61
576,02	60250,07
576,18	60706,47
576,34	60987,34
576,51	61558,43
576,67	61687,16
576,83	61329,06
576,99	61125,43
577,16	60596,47
577,32	59255,34
577,48	58124,86
577,64	57670,80
577,81	56809,48
577,97	56622,24
578,13	56664,37
578,30	57057,58
578,46	57598,24
578,62	57946,98
578,78	58717,02
578,94	59117,25
579,11	59709,41
579,27	60360,08
579,43	60694,77
579,59	61413,32
579,76	61778,44
579,92	61914,19
580,08	62152,93
580,24	62501,67
580,41	61895,47
580,57	60992,02
580,73	60086,23
580,89	58981,50
581,05	57954,00
581,22	57205,03
581,38	56821,19
581,54	56605,86
581,70	57179,29
581,86	57570,16
582,03	58382,32
582,19	59105,55
582,35	59959,84
582,51	60849,25
582,67	61340,76
582,83	61792,48
583,00	61928,23
583,16	62576,56
583,32	62410,38
583,48	62592,95
583,64	62485,28
583,80	62417,41
583,97	62798,91
584,13	61577,15
584,29	60926,49
584,45	59704,73
584,61	58475,94
584,77	58466,58
584,93	57752,72
585,09	57949,32
585,26	58548,50
585,42	59248,32
585,58	59840,48
585,74	60341,35
585,90	60680,73
586,06	60708,82
586,22	61556,09
586,38	61638,01
586,55	61764,40
586,71	62211,44
586,87	62522,73
587,03	62988,50
587,19	63107,86
587,35	63117,23
587,51	62929,98
587,67	62005,47
587,83	60987,34
587,99	59234,28
588,15	57794,85
588,31	57722,29
588,48	57195,67
588,64	57422,70
588,80	58377,64
588,96	59650,89
589,12	59451,95
589,28	60360,08
589,44	60493,49
589,60	60947,55
589,76	61244,80
589,92	61532,68
590,08	61682,48
590,24	62255,91
590,40	62768,49
590,56	63004,88
590,72	63210,85
590,88	63449,58
591,04	63412,13
591,20	63070,42
591,36	62377,62
591,52	61076,28
591,68	59945,80
591,84	58747,45
592,00	58824,68
592,16	58761,49
592,32	59154,70
592,48	59786,64
592,64	60360,08
592,80	60664,35
592,96	60889,04
593,12	61544,39
593,28	61918,87
593,44	62049,94
593,60	62679,55
593,76	62815,30
593,92	62810,62
594,08	63327,87
594,24	63257,66
594,40	63700,02
594,56	63597,04
594,72	63531,50
594,88	63407,45
595,04	62499,33
595,20	61120,75
595,36	59952,82
595,52	58171,67
595,67	57626,33
595,83	57350,15
595,99	57600,58
596,15	58426,79
596,31	59157,04
596,47	59604,08
596,63	60484,12
596,79	60671,37
596,95	60842,23
597,11	61364,17
597,27	61773,76
597,43	62131,86
597,58	62370,60
597,74	62466,56
597,90	62859,77
598,06	63138,29
598,22	63283,40
598,38	63620,44
598,54	63327,87
598,70	63344,26
598,86	62438,47
599,01	61029,47
599,17	59461,31
599,33	58190,40
599,49	57874,43
599,65	57682,50
599,81	58305,09
599,97	58447,86
600,12	59175,76
600,28	59807,71
600,44	60149,43
600,60	60992,02
600,76	60980,32
600,92	61497,58
601,07	61776,10
601,23	62059,30
601,39	62312,08
601,55	62323,78
601,71	62843,38
601,87	63049,35
602,02	63388,73
602,18	63346,60
602,34	63629,80
602,50	63381,71
602,66	62267,61
602,81	61635,67
602,97	60175,17
603,13	58810,64
603,29	57897,83
603,45	57881,45
603,60	58068,69
603,76	58485,31
603,92	59374,71
604,08	59777,28
604,23	60243,05
604,39	60573,06
604,55	60671,37
604,71	61188,63
604,86	61144,16
605,02	61874,40
605,18	61841,63
605,34	62471,24
605,49	62321,44
605,65	62595,29
605,81	62848,06
605,97	63323,19
606,12	63147,65
606,28	63149,99
606,44	62541,45
606,60	62176,33
606,75	60732,22
606,91	59681,32
607,07	58567,23
607,22	58164,65
607,38	58220,83
607,54	58237,21
607,70	58670,21
607,85	59267,05
608,01	59618,13
608,17	60121,34
608,32	60097,94
608,48	60371,78
608,64	60727,54
608,79	60643,28
608,95	61432,04
609,11	61574,81
609,26	61860,36
609,42	62040,58
609,58	62176,33
609,74	62461,88
609,89	62424,43
610,05	62686,57
610,20	62569,54
610,36	62480,60
610,52	61701,20
610,67	60676,05
610,83	59931,76
610,99	59056,40
611,14	58110,82
611,30	58110,82
611,46	57675,48
611,61	58335,51
611,77	58656,17
611,93	58908,94
612,08	59313,86
612,24	59522,16
612,39	59817,07
612,55	60006,65
612,71	60430,29
612,86	60816,48
613,02	60903,08
613,17	61001,38
613,33	61102,03
613,49	61036,49
613,64	61155,86
613,80	61593,54
613,95	61680,14
614,11	61663,75
614,26	61656,73
614,42	61326,72
614,58	60748,60
614,73	60189,22
614,89	59302,15
615,04	58543,82
615,20	57963,37
615,35	57703,57
615,51	57876,77
615,67	57937,62
615,82	58431,47
615,98	58326,15
616,13	58679,57
616,29	59028,31
616,44	59234,28
616,60	59573,66
616,75	59496,42
616,91	60100,28
617,06	59632,17
617,22	60023,04
617,37	60505,19
617,53	60310,92
617,68	60617,53
617,84	60779,03
617,99	60472,42
618,15	61118,41
618,30	60903,08
618,46	60659,66
618,61	60186,88
618,77	59810,05
618,92	58646,80
619,08	58314,45
619,23	57513,98
619,39	57347,81
619,54	57453,13
619,70	57254,18
619,85	57513,98
620,01	57656,76
620,16	58162,31
620,32	58064,01
620,47	58555,52
620,63	58611,70
620,78	58745,11
620,93	59082,14
621,09	59456,63
621,24	59297,47
621,40	59107,89
621,55	59353,65
621,71	59379,39
621,86	59634,51
622,01	59994,95
622,17	59849,84
622,32	60151,77
622,48	59870,90
622,63	59503,44
622,79	59004,91
622,94	58658,51
623,09	58375,30
623,25	57612,29
623,40	56959,28
623,56	56767,35
623,71	56404,57
623,86	56587,13
624,02	56746,29
624,17	56573,09
624,32	57064,60
624,48	57476,54
624,63	57165,24
624,79	57652,08
624,94	57848,68
625,09	58122,52
625,25	58319,13
625,40	58202,10
625,55	58618,72
625,71	58431,47
625,86	58635,10
626,01	59318,54
626,17	59260,02
626,32	58642,12
626,47	59248,32
626,63	58831,71
626,78	58365,94
626,93	58389,34
627,09	58260,62
627,24	57869,75
627,39	57373,55
627,55	56975,66
627,70	56662,03
627,85	56502,87
628,01	56168,18
628,16	56121,37
628,31	56264,14
628,47	56442,02
628,62	56505,21
628,77	56435,00
628,92	56526,28
629,08	56601,18
629,23	57080,98
629,38	56877,36
629,54	56872,68
629,69	57488,24
629,84	57907,19
629,99	57888,47
630,15	57631,01
630,30	57841,66
630,45	58038,26
630,60	57942,30
630,76	57883,79
630,91	58052,31
631,06	57883,79
631,21	57708,25
631,37	57387,60
631,52	56725,22
631,67	56938,21
631,82	56961,62
631,98	56189,24
632,13	56250,09
632,28	56130,73
632,43	55604,11
632,58	55966,89
632,74	56355,42
632,89	55917,74
633,04	56053,49
633,19	55423,89
633,34	56350,74
633,50	56568,41
633,65	56362,44
633,80	56222,01
633,95	56217,33
634,10	56589,47
634,26	56802,46
634,41	56753,31
634,56	57247,16
634,71	57001,41
634,86	56704,16
635,01	57139,50
635,17	56919,49
635,32	56587,13
635,47	57214,40
635,62	56804,80
635,77	56013,70
635,92	55789,01
636,07	55877,95
636,23	55344,31
636,38	55260,05
636,53	55037,70
636,68	54958,12
636,83	55056,42
636,98	54576,61
637,13	55206,22
637,28	54731,09
637,44	55180,47
637,59	55213,24
637,74	55112,59
637,89	55276,43
638,04	55613,47
638,19	55590,06
638,34	55622,83
638,49	55950,51
638,64	55702,41
638,79	55627,51
638,95	55824,12
639,10	55353,67
639,25	55683,69
639,40	55906,04
639,55	55941,14
639,70	55817,10
639,85	55604,11
640,00	55143,02
640,15	55569,00
640,30	55674,32
640,45	54955,78
640,60	54775,56
640,75	54798,96
640,90	54377,67
641,05	53865,09
641,20	54436,18
641,35	54117,87
641,50	53811,26
641,65	54471,29
641,80	54131,91
641,95	53935,30
642,11	54059,35
642,26	54536,82
642,41	54527,46
642,56	54501,71
642,71	54085,10
642,86	54492,35
643,01	54218,51
643,16	54560,23
643,31	54651,51
643,46	54953,44
643,61	54815,35
643,75	54866,84
643,90	54452,56
644,05	54801,30
644,20	54831,73
644,35	54459,58
644,50	54211,49
644,65	54143,61
644,80	53965,73
644,95	53829,98
645,10	53677,85
645,25	53682,53
645,40	53556,14
645,55	53516,35
645,70	53151,23
645,85	52961,64
646,00	52589,50
646,15	53165,27
646,30	53043,56
646,45	52926,53
646,60	53015,47
646,74	53249,53
646,89	53247,19
647,04	53036,54
647,19	53270,59
647,34	53261,23
647,49	53193,36
647,64	53647,42
647,79	53324,43
647,94	53308,04
648,09	53296,34
648,23	53151,23
648,38	53275,27
648,53	52973,34
648,68	53062,29
648,83	53343,15
648,98	53052,92
649,13	52992,07
649,28	53174,63
649,42	52301,61
649,57	52781,42
649,72	52083,94
649,87	52200,97
650,02	51718,82
650,17	52339,06
650,32	51688,39
650,46	51852,23
650,61	51962,23
650,76	52097,98
650,91	51676,69
651,06	51847,55
651,21	52420,98
651,35	51461,36
651,50	52016,07
651,65	51742,22
651,80	51648,60
651,95	51997,34
652,09	51323,27
652,24	51885,00
652,39	51529,23
652,54	51664,99
652,69	51824,14
652,83	51718,82
652,98	51482,42
653,13	51569,02
653,28	51786,69
653,43	51334,97
653,57	51482,42
653,72	51676,69
653,87	51285,82
654,02	51496,47
654,16	51014,32
654,31	51304,54
654,46	50515,78
654,61	51019,00
654,75	50747,50
654,90	50337,90
655,05	50590,68
655,20	50490,04
655,34	49958,73
655,49	50206,83
655,64	49897,88
655,79	50000,86
655,93	50178,75
656,08	50333,22
656,23	50522,80
656,38	50351,94
656,52	50024,27
656,67	50263,00
656,82	50876,22
656,96	49872,14
657,11	50110,87
657,26	50298,11
657,40	50033,63
657,55	50120,23
657,70	50239,60
657,84	49879,16
657,99	49778,51
658,14	49890,86
658,29	49598,29
658,43	49397,01
658,58	49628,72
658,73	49088,06
658,87	48650,38
659,02	49357,22
659,16	48996,77
659,31	48718,25
659,46	48914,86
659,60	48594,20
659,75	48231,42
659,90	48790,81
660,04	48423,34
660,19	48596,54
660,34	47901,40
660,48	48451,43
660,63	48435,05
660,77	48090,99
660,92	48364,83
661,07	48343,77
661,21	48182,27
661,36	47791,40
661,51	48065,24
661,65	47959,92
661,80	47838,21
661,94	48060,56
662,09	47854,59
662,23	47786,72
662,38	47318,61
662,53	47791,40
662,67	47868,64
662,82	48142,48
662,96	47910,77
663,11	47569,05
663,26	47351,38
663,40	47210,95
663,55	47239,03
663,69	46857,52
663,84	47009,66
663,98	47016,68
664,13	46852,84
664,27	46607,09
664,42	46628,15
664,56	46597,73
664,71	46529,85
664,86	46368,35
665,00	46260,69
665,15	46410,48
665,29	45790,24
665,44	46024,29
665,58	46007,91
665,73	46433,89
665,87	45729,39
666,02	45874,50
666,16	45682,58
666,31	45900,25
666,45	45778,54
666,60	45647,47
666,74	45682,58
666,89	45284,68
667,03	45546,82
667,18	45626,40
667,32	45429,80
667,47	45614,70
667,61	45148,93
667,75	45338,52
667,90	45443,84
668,04	45478,95
668,19	45202,77
668,33	45364,26
668,48	45186,38
668,62	44781,47
668,77	44708,91
668,91	44505,29
669,06	44175,27
669,20	44205,70
669,34	44280,60
669,49	44341,45
669,63	43899,09
669,78	44095,69
669,92	43999,73
670,07	43903,77
670,21	43999,73
670,35	43213,31
670,50	43746,95
670,64	43316,29
670,79	43697,80
670,93	43529,28
671,07	43421,62
671,22	43335,02
671,36	43625,25
671,50	43239,06
671,65	43501,20
671,79	42981,60
671,94	43192,25
672,08	42590,73
672,22	42902,02
672,37	42658,60
672,51	42621,16
672,65	42529,87
672,80	43047,13
672,94	42824,78
673,08	42754,57
673,23	43042,45
673,37	42251,35
673,52	42209,22
673,66	42066,45
673,80	42272,42
673,95	41830,05
674,09	41806,65
674,23	42054,75
674,37	41729,41
674,52	41724,73
674,66	41476,63
674,80	41233,22
674,95	41839,42
675,09	41148,96
675,23	41287,05
675,38	40732,34
675,52	41127,89
675,66	41486,00
675,80	41034,27
675,95	41694,30
676,09	41301,09
676,23	40811,92
676,38	40655,11
676,52	40722,98
676,66	40636,38
676,80	40832,99
676,95	40453,82
677,09	40732,34
677,23	40751,07
677,37	40556,80
677,52	40421,05
677,66	40126,14
677,80	40133,17
677,94	40371,90
678,09	39833,58
678,23	39559,73
678,37	40030,18
678,51	39835,92
678,66	39585,48
678,80	39601,86
678,94	39269,51
679,08	39339,72
679,22	39440,37
679,37	39899,11
679,51	39356,11
679,65	39154,82
679,79	38955,88
679,93	39344,41
680,08	39136,10
680,22	38906,73
680,36	38597,77
680,50	38440,96
680,64	38763,95
680,78	38621,18
680,93	39030,77
681,07	38466,70
681,21	38719,48
681,35	38534,58
681,49	38012,64
681,63	38127,33
681,78	38082,86
681,92	37890,93
682,06	38237,33
682,20	38059,45
682,34	38424,57
682,48	38047,75
682,62	38195,20
682,77	38089,88
682,91	37345,59
683,05	37769,22
683,19	37811,35
683,33	37226,22
683,47	37434,53
683,61	37312,82
683,75	37043,66
683,89	37031,96
684,04	36404,69
684,18	36769,82
684,32	36708,96
684,46	36879,82
684,60	36872,80
684,74	36318,09
684,88	36339,16
685,02	36343,84
685,16	36439,80
685,30	36140,21
685,44	36070,00
685,58	36271,28
685,72	35805,52
685,87	35999,78
686,01	35667,42
686,15	35725,94
686,29	35896,80
686,43	35131,44
686,57	35922,54
686,71	35583,16
686,85	35824,24
686,99	35538,69
687,13	35171,23
687,27	35009,73
687,41	34948,88
687,55	34899,73
687,69	34527,58
687,83	34714,83
687,97	34550,99
688,11	34019,69
688,25	34445,66
688,39	34253,74
688,53	33970,54
688,67	34141,39
688,81	33844,15
688,95	33614,77
689,09	33717,76
689,23	33383,06
689,37	33270,72
689,51	33085,81
689,65	32842,40
689,79	32655,15
689,93	32844,74
690,07	32268,97
690,21	32418,76
690,35	31796,18
690,49	31941,29
690,63	31632,34
690,76	32493,66
690,90	31192,32
691,04	31344,45
691,18	31342,11
691,32	31157,21
691,46	30768,68
691,60	30618,89
691,74	30981,67
691,88	30307,60
692,02	30298,23
692,16	29979,92
692,30	30059,50
692,44	29436,92
692,57	29811,40
692,71	29516,50
692,85	29373,72
692,99	29170,10
693,13	28905,62
693,27	28697,31
693,41	28510,07
693,55	28135,58
693,69	28074,73
693,82	27641,73
693,96	27566,83
694,10	27278,94
694,24	27080,00
694,38	27304,69
694,52	27007,44
694,66	26518,27
694,79	26628,27
694,93	26441,03
695,07	26485,50
695,21	26232,72
695,35	26068,89
695,49	26008,03
695,62	25624,18
695,76	25514,18
695,90	25226,29
696,04	25062,46
696,18	24828,40
696,31	24650,52
696,45	24474,98
696,59	24170,71
696,73	24208,16
696,87	24023,26
697,00	23665,16
697,14	23484,94
697,28	23449,83
697,42	22939,59
697,56	23054,28
697,69	23171,30
697,83	22602,55
697,97	22895,12
698,11	22452,76
698,24	22174,24
698,38	22033,80
698,52	22398,93
698,66	21680,38
698,80	21481,44
698,93	21277,81
699,07	21132,70
699,21	20936,09
699,34	20816,72
699,48	20872,90
699,62	20596,71
699,76	20535,86
699,89	20219,89
700,03	19843,06
700,17	19742,42
700,31	19939,02
700,44	19468,58
700,58	19316,44
700,72	19122,18
700,85	19222,82
700,99	18977,06
701,13	18670,45
701,26	18574,49
701,40	18389,59
701,54	17909,78
701,68	17858,29
701,81	17867,65
701,95	17759,98
702,09	17699,13
702,22	17507,21
702,36	17193,58
702,50	17287,20
702,63	17036,76
702,77	16507,80
702,91	16166,08
703,04	16556,95
703,18	16540,57
703,31	16287,79
703,45	15737,76
703,59	15637,12
703,72	15868,83
703,86	15459,24
704,00	15346,89
704,13	15363,28
704,27	15190,08
704,40	14780,48
704,54	14960,70
704,68	14506,64
704,81	14541,75
704,95	14548,77
705,08	14408,34
705,22	14249,18
705,36	14019,81
705,49	13848,95
705,63	13788,10
705,76	13659,37
705,90	13266,16
706,04	13296,58
706,17	13163,17
706,31	13092,96
706,44	13020,40
706,58	12774,64
706,71	12791,03
706,85	12634,21
706,99	12645,91
707,12	12329,94
707,26	12397,82
707,39	12093,55
707,53	12042,06
707,66	11915,67
707,80	11815,02
707,93	11686,29
708,07	11496,71
708,20	11176,06
708,34	11384,37
708,47	11138,61
708,61	11183,08
708,74	11131,59
708,88	10958,39
709,01	10850,72
709,15	10661,14
709,28	10413,04
709,42	10410,70
709,55	10253,89
709,69	10155,58
709,82	10258,57
709,96	9851,31
710,09	9755,35
710,23	9640,67
710,36	9523,64
710,50	9558,75
710,63	9366,82
710,77	9362,14
710,90	9210,01
711,04	9181,92
711,17	8971,27
711,30	9055,53
711,44	8840,20
711,57	8816,80
711,71	8608,49
711,84	8659,98
711,98	8446,99
712,11	8421,25
712,24	8315,92
712,38	8248,05
712,51	8121,66
712,65	8013,99
712,78	8030,38
712,92	7824,41
713,05	7777,60
713,18	7688,66
713,32	7445,24
713,45	7473,33
713,59	7384,39
713,72	7185,44
713,85	7445,24
713,99	7220,55
714,12	7066,08
714,25	7023,95
714,39	6942,03
714,52	6904,58
714,66	6860,11
714,79	6736,06
714,92	6698,61
715,06	6670,53
715,19	6459,88
715,32	6520,73
715,46	6600,31
715,59	6352,21
715,72	6370,94
715,86	6094,76
715,99	6094,76
716,12	6047,94
716,26	6022,20
716,39	5893,47
716,52	5865,38
716,66	5760,06
716,79	5746,02
716,92	5696,86
717,05	5621,97
717,19	5692,18
717,32	5483,88
717,45	5547,07
717,59	5345,78
717,72	5479,19
717,85	5329,40
717,98	5128,11
718,12	5207,69
718,25	4975,98
718,38	5090,67
718,52	4980,66
718,65	4929,17
718,78	4990,02
718,91	4919,81
719,05	4753,63
719,18	4826,18
719,31	4842,57
719,44	4727,88
719,58	4662,35
719,71	4573,41
719,84	4568,73
719,97	4589,79
720,10	4540,64
720,24	4440,00
720,37	4442,34
720,50	4362,76
720,63	4301,90
720,77	4306,59
720,90	4276,16
721,03	4086,58
721,16	4072,53
721,29	4187,22
721,43	4098,28
721,56	4100,62
721,69	3955,51
721,82	3925,08
721,95	4007,00
722,08	3794,01
722,22	3756,56
722,35	3880,61
722,48	3698,05
722,61	3716,77
722,74	3786,99
722,87	3667,62
723,01	3667,62
723,14	3578,68
723,27	3564,64
723,40	3574,00
723,53	3489,74
723,66	3541,23
723,79	3552,93
723,93	3438,25
724,06	3480,38
724,19	3346,97
724,32	3358,67
724,45	3321,22
724,58	3414,84
724,71	3234,62
724,84	3227,60
724,97	3220,58
725,11	3206,53
725,24	3143,34
725,37	3129,30
725,50	3180,79
725,63	3115,25
725,76	3047,38
725,89	3091,85
726,02	2984,18
726,15	2981,84
726,28	2991,20
726,41	2958,44
726,54	2958,44
726,67	2958,44
>>>>>End Processed Spectral Data<<<<<
