SpectraSuite Datei
++++++++++++++++++++++++++++++++++++
Datum: Fri Jan 02 21:28:08 CET 2004
Benutzer: Student
Dark-Spektrum vorhanden: Ja
Referenz-Spektrum vorhanden: Nein
Zahl der probierten Teilspektren: 1
Spektrometer: USB2+H15728
Integrationszeit (usec): 100000 (USB2+H15728)
Spektren Durchschnitt berechnet: 1 (USB2+H15728)
Boxcar Glättung: 0 (USB2+H15728)
Dunkelstromkorrektur: Nein (USB2+H15728)
Puls/Lampe aktiviert: Nein (USB2+H15728)
Correct for Detector Non-linearity: Nein (USB2+H15728)
Streulichtkorrektur: Nein (USB2+H15728)
Anzahl Pixel in verarbeitetem Spektrum: 2048
>>>>>Begin Processed Spectral Data<<<<<
394,80	1392,62
394,99	1392,62
395,18	1392,62
395,37	1348,15
395,56	1364,53
395,75	1329,42
395,94	1345,81
396,13	1352,83
396,32	1376,24
396,51	1392,62
396,70	1420,71
396,89	1451,13
397,08	1439,43
397,27	1481,56
397,46	1380,92
397,65	1434,75
397,84	1504,96
398,03	1502,62
398,23	1554,12
398,42	1549,43
398,61	1504,96
398,80	1610,29
398,99	1570,50
399,18	2881,20
399,37	6658,82
399,56	7037,99
399,75	7276,73
399,94	7204,17
400,13	7234,60
400,31	7339,92
400,50	7358,64
400,69	7463,97
400,88	7529,50
401,07	7637,17
401,26	7531,84
401,45	7674,62
401,64	7726,11
401,83	7953,14
402,02	7662,91
402,21	7885,26
402,40	7815,05
402,59	7918,03
402,78	8081,87
402,97	8102,93
403,16	7955,48
403,35	7943,78
403,54	8168,47
403,73	8248,05
403,92	8421,25
404,11	8358,05
404,30	8489,12
404,49	8489,12
404,68	8650,62
404,86	8741,90
405,05	8430,61
405,24	8709,13
405,43	8690,41
405,62	8805,10
405,81	8858,93
406,00	8919,78
406,19	8999,36
406,38	9179,58
406,57	9284,91
406,76	9050,85
406,94	9118,73
407,13	9434,70
407,32	9448,74
407,51	9521,30
407,70	9619,60
407,89	9668,75
408,08	9605,56
408,27	10073,67
408,46	9928,55
408,64	9951,96
408,83	9975,36
409,02	10031,54
409,21	10272,61
409,40	10202,40
409,59	10328,78
409,78	10260,91
409,97	10164,95
410,15	10333,47
410,34	10389,64
410,53	10497,30
410,72	10691,57
410,91	10616,67
411,10	10965,41
411,28	10799,23
411,47	10974,77
411,66	11070,73
411,85	10888,17
412,04	11119,89
412,23	11157,33
412,41	11447,56
412,60	11449,90
412,79	11473,31
412,98	11428,84
413,17	11487,35
413,36	11765,87
413,54	11513,10
413,73	11538,84
413,92	11779,92
414,11	12187,17
414,30	12198,87
414,48	12311,22
414,67	12126,32
414,86	12463,35
415,05	12250,36
415,24	12404,84
415,42	12170,79
415,61	12219,94
415,80	12638,89
415,99	12400,16
416,17	12765,28
416,36	12606,13
416,55	12840,18
416,74	12865,92
416,93	12849,54
417,11	13294,24
417,30	12765,28
417,49	12894,01
417,68	13231,05
417,86	12901,03
418,05	13458,08
418,24	13263,82
418,43	13181,90
418,61	13647,66
418,80	13619,58
418,99	13357,44
419,18	13664,05
419,36	13497,87
419,55	13834,91
419,74	13727,24
419,92	13741,29
420,11	13717,88
420,30	13741,29
420,49	14019,81
420,67	13991,72
420,86	14073,64
421,05	14181,31
421,23	14045,55
421,42	14469,19
421,61	13905,12
421,80	14609,62
421,98	14384,93
422,17	14115,77
422,36	14359,19
422,54	14363,87
422,73	14349,82
422,92	14583,88
423,10	14705,59
423,29	14750,06
423,48	14373,23
423,66	14410,68
423,85	14778,14
424,04	15016,88
424,22	14626,01
424,41	15101,14
424,60	14848,36
424,78	14972,41
424,97	15403,07
425,16	14927,94
425,34	15056,67
425,53	15105,82
425,72	15335,19
425,90	15201,78
426,09	15351,57
426,28	15477,96
426,46	15583,29
426,65	15557,54
426,84	15367,96
427,02	15655,84
427,21	15695,63
427,39	15669,89
427,58	16091,18
427,77	15737,76
427,95	15908,62
428,14	15786,91
428,33	16133,31
428,51	16154,38
428,70	16056,08
428,88	16327,58
429,07	16404,81
429,26	16325,24
429,44	16217,57
429,63	16348,64
429,81	16765,26
430,00	16297,15
430,18	16681,00
430,37	16372,05
430,56	16725,47
430,74	16795,68
430,93	16973,56
431,11	17034,42
431,30	16802,71
431,49	16971,22
431,67	17055,48
431,86	17151,45
432,04	17226,34
432,23	17542,32
432,41	17362,09
432,60	17596,15
432,78	17504,87
432,97	17359,75
433,16	18036,17
433,34	17788,07
433,53	17937,87
433,71	18066,60
433,90	18082,98
434,08	18167,24
434,27	18113,41
434,45	18537,04
434,64	18579,17
434,82	18335,76
435,01	18492,57
435,19	18766,42
435,38	18988,77
435,56	18838,97
435,75	18834,29
435,93	18948,98
436,12	18988,77
436,30	19087,07
436,49	19166,65
436,67	19239,20
436,86	19157,28
437,04	19035,58
437,23	19669,86
437,41	19473,26
437,60	19580,92
437,78	19646,46
437,97	19578,58
438,15	19440,49
438,34	19978,81
438,52	19784,55
438,71	20039,67
438,89	19934,34
439,08	19995,20
439,26	20018,60
439,45	19758,80
439,63	20236,27
439,81	20437,56
440,00	20119,24
440,18	20540,54
440,37	20112,22
440,55	20233,93
440,74	20086,48
440,92	20287,76
441,11	20301,81
441,29	20046,69
441,47	20695,02
441,66	20313,51
441,84	20393,09
442,03	19981,15
442,21	20386,07
442,39	20922,05
442,58	20601,40
442,76	21036,74
442,95	20922,05
443,13	20910,35
443,32	20510,11
443,50	20863,54
443,68	20292,44
443,87	20147,33
444,05	21032,05
444,23	20886,94
444,42	20435,22
444,60	20606,08
444,79	20566,29
444,97	20570,97
445,15	20645,87
445,34	20563,95
445,52	20545,22
445,71	20680,97
445,89	20802,68
446,07	20697,36
446,26	20072,43
446,44	20798,00
446,62	20673,95
446,81	20334,57
446,99	20407,13
447,17	20620,12
447,36	20187,12
447,54	20266,70
447,72	20119,24
447,91	20266,70
448,09	20570,97
448,27	20428,20
448,46	20210,53
448,64	20233,93
448,82	19920,30
449,01	20276,06
449,19	20025,62
449,37	20542,88
449,56	20049,03
449,74	20102,86
449,92	20170,74
450,11	20217,55
450,29	19679,22
450,47	20215,21
450,66	19908,60
450,84	19899,23
451,02	19807,95
451,20	19885,19
451,39	20058,39
451,57	19730,72
451,75	19747,10
451,94	20119,24
452,12	20114,56
452,30	20121,59
452,48	20084,14
452,67	19241,54
452,85	19585,60
453,03	19824,34
453,21	19920,30
453,40	19597,31
453,58	19964,77
453,76	19735,40
453,94	19667,52
454,13	19665,18
454,31	19433,47
454,49	19468,58
454,67	19899,23
454,86	19716,67
455,04	19672,20
455,22	19529,43
455,40	19709,65
455,59	19714,33
455,77	19557,52
455,95	19770,51
456,13	19702,63
456,32	19421,77
456,50	19297,72
456,68	19592,62
456,86	19793,91
457,04	19578,58
457,23	19630,07
457,41	19239,20
457,59	19674,54
457,77	19506,02
457,95	19520,07
458,14	19543,47
458,32	19878,17
458,50	19566,88
458,68	19714,33
458,86	19513,05
459,04	20023,28
459,23	19389,00
459,41	19513,05
459,59	19445,17
459,77	19606,67
459,95	19599,65
460,13	19812,63
460,32	19803,27
460,50	19580,92
460,68	19524,75
460,86	19866,47
461,04	19793,91
461,22	19700,29
461,41	19934,34
461,59	19824,34
461,77	19749,44
461,95	19964,77
462,13	20292,44
462,31	19611,35
462,49	19932,00
462,68	20009,24
462,86	19829,02
463,04	19953,07
463,22	20198,82
463,40	20046,69
463,58	20189,46
463,76	20023,28
463,94	20311,17
464,12	20362,66
464,31	20458,62
464,49	20161,37
464,67	20411,81
464,85	20037,33
465,03	20549,90
465,21	20166,06
465,39	20257,34
465,57	20631,82
465,75	20430,54
465,93	20407,13
466,11	19836,04
466,29	20102,86
466,48	20435,22
466,66	20283,08
466,84	20407,13
467,02	20306,49
467,20	20072,43
467,38	20002,22
467,56	19658,16
467,74	19941,36
467,92	19571,56
468,10	19786,89
468,28	20088,82
468,46	19351,55
468,64	19623,05
468,82	19611,35
469,00	19620,71
469,18	19246,23
469,36	19377,30
469,54	19641,78
469,72	19489,64
469,90	19611,35
470,08	19786,89
470,26	18925,57
470,44	19466,24
470,62	19321,12
470,80	19122,18
470,98	19424,11
471,16	19477,94
471,34	19232,18
471,52	19091,75
471,70	19260,27
471,88	19447,51
472,06	19091,75
472,24	19248,57
472,42	19220,48
472,60	18958,34
472,78	18998,13
472,96	19211,12
473,14	18941,96
473,32	18981,74
473,50	19112,81
473,68	18764,07
473,86	18941,96
474,04	18848,33
474,22	18920,89
474,40	18806,20
474,58	18820,25
474,76	18719,60
474,94	18883,44
475,12	18738,33
475,30	18618,96
475,48	18527,68
475,66	18476,19
475,84	18562,79
476,02	18799,18
476,19	18637,69
476,37	18588,53
476,55	18429,38
476,73	18539,38
476,91	18391,93
477,09	18312,35
477,27	18398,95
477,45	18469,17
477,63	18340,44
477,81	18246,82
477,99	18132,13
478,16	18307,67
478,34	18153,20
478,52	18333,42
478,70	17970,63
478,88	18284,26
479,06	18052,55
479,24	17933,18
479,42	18075,96
479,60	17961,27
479,77	17900,42
479,95	17774,03
480,13	18143,83
480,31	18029,15
480,49	17673,39
480,67	17923,82
480,85	17664,02
481,02	17649,98
481,20	17661,68
481,38	17579,76
481,56	17781,05
481,74	17385,50
481,92	17467,42
482,10	17228,68
482,27	17387,84
482,45	17582,10
482,63	17341,03
482,81	17238,05
482,99	17334,01
483,17	17165,49
483,34	17362,09
483,52	17144,42
483,70	16858,88
483,88	17256,77
484,06	17139,74
484,23	17003,99
484,41	16812,07
484,59	16982,93
484,77	16685,68
484,95	16711,42
485,12	16828,45
485,30	16734,83
485,48	16545,25
485,66	16517,16
485,84	16636,53
486,01	16460,99
486,19	16503,12
486,37	16360,34
486,55	16744,19
486,72	16535,88
486,90	16311,19
487,08	16133,31
487,26	16215,23
487,43	16149,70
487,61	16056,08
487,79	16109,91
487,97	16072,46
488,14	16116,93
488,32	15946,07
488,50	16159,06
488,68	15786,91
488,85	15955,43
489,03	16173,10
489,21	15819,68
489,39	15761,17
489,56	15988,20
489,74	15861,81
489,92	15953,09
490,10	15709,68
490,27	15838,41
490,45	15417,11
490,63	15637,12
490,80	15634,78
490,98	15508,39
491,16	15587,97
491,33	15365,62
491,51	15508,39
491,69	15080,07
491,87	15105,82
492,04	15349,23
492,22	15344,55
492,40	15276,68
492,57	15180,71
492,75	15138,58
492,93	15222,84
493,10	14944,32
493,28	15014,54
493,46	14846,02
493,63	15037,94
493,81	14939,64
493,99	14890,49
494,16	14967,73
494,34	14909,21
494,52	14857,72
494,69	14824,95
494,87	14712,61
495,05	14611,96
495,22	14621,33
495,40	14558,13
495,57	14508,98
495,75	14530,05
495,93	14417,70
496,10	14263,22
496,28	14244,50
496,46	14279,61
496,63	14441,11
496,81	14193,01
496,98	14576,86
497,16	14120,45
497,34	14394,29
497,51	14424,72
497,69	14148,54
497,86	14319,40
498,04	14183,65
498,22	14029,17
498,39	13973,00
498,57	14136,84
498,74	14101,73
498,92	14057,26
499,10	13940,23
499,27	14157,90
499,45	14139,18
499,62	14359,19
499,80	14265,57
499,97	14342,80
500,15	14691,54
500,33	14644,73
500,50	14401,32
500,68	14927,94
500,85	15012,20
501,03	15225,18
501,20	15096,46
501,38	15166,67
501,55	15325,83
501,73	15550,52
501,90	15999,90
502,08	16049,05
502,25	16283,11
502,43	16599,08
502,61	16549,93
502,78	16690,36
502,96	17160,81
503,13	17228,68
503,31	17434,65
503,48	17284,86
503,66	17568,06
503,83	17834,88
504,01	18249,16
504,18	18731,31
504,36	18775,78
504,53	18796,84
504,71	19822,00
504,88	19225,16
505,06	19665,18
505,23	19775,19
505,41	20285,42
505,58	20472,67
505,76	20713,74
505,93	20727,78
506,10	21282,49
506,28	21296,53
506,45	21142,06
506,63	22026,78
506,80	22113,38
506,98	22450,42
507,15	22843,63
507,33	22684,47
507,50	23281,31
507,68	23658,14
507,85	24072,41
508,02	24180,07
508,20	24257,31
508,37	25607,80
508,55	25694,40
508,72	25778,66
508,90	25598,44
509,07	26504,23
509,24	27058,93
509,42	27185,32
509,59	27175,96
509,77	26878,71
509,94	27222,77
510,12	27744,71
510,29	28802,63
510,46	28678,58
510,64	27854,72
510,81	28107,49
510,98	28643,48
511,16	29184,14
511,33	29813,74
511,51	29991,62
511,68	29888,64
511,85	30436,33
512,03	30733,57
512,20	31641,70
512,38	32177,68
512,55	32676,22
512,72	31985,76
512,90	31955,33
513,07	32837,72
513,24	33605,41
513,42	34033,73
513,59	34066,50
513,76	33635,84
513,94	34017,35
514,11	34782,70
514,28	35929,56
514,46	36402,35
514,63	36343,84
514,80	36671,51
514,98	35690,83
515,15	35435,71
515,32	36121,49
515,50	36086,38
515,67	37053,02
515,84	37652,20
516,02	37855,82
516,19	37008,55
516,36	36519,38
516,54	36533,42
516,71	37443,89
516,88	38714,80
517,05	39185,25
517,23	39405,26
517,40	39250,78
517,57	37834,76
517,75	37186,43
517,92	37841,78
518,09	38583,73
518,26	39880,39
518,44	40133,17
518,61	40030,18
518,78	39667,40
518,96	38689,06
519,13	38983,96
519,30	39976,35
519,47	41265,99
519,65	41893,25
519,82	42408,17
519,99	42410,51
520,16	42611,79
520,34	40666,81
520,51	40285,30
520,68	40236,15
520,85	41301,09
521,03	42454,98
521,20	43203,95
521,37	43866,32
521,54	43639,29
521,71	43136,07
521,89	42270,08
522,06	41605,36
522,23	42096,88
522,40	43407,58
522,57	44528,69
522,75	44786,15
522,92	46209,20
523,09	45787,90
523,26	44526,35
523,43	42899,68
523,61	42337,95
523,78	43597,16
523,95	44905,52
524,12	45607,68
524,29	46117,92
524,47	46871,57
524,64	46904,34
524,81	46906,68
524,98	45296,39
525,15	44219,74
525,32	44172,93
525,50	44966,37
525,67	46574,32
525,84	46686,67
526,01	47859,27
526,18	48449,09
526,35	48486,54
526,52	47966,94
526,70	46150,68
526,87	45406,39
527,04	44982,76
527,21	46499,42
527,38	47557,35
527,55	48385,89
527,72	49177,00
527,90	49832,35
528,07	49635,74
528,24	48776,76
528,41	48191,63
528,58	46539,21
528,75	46775,61
528,92	47796,08
529,09	49111,46
529,26	49834,69
529,43	50330,88
529,61	50703,03
529,78	51437,95
529,95	51667,33
530,12	51222,62
530,29	50656,21
530,46	49834,69
530,63	49921,29
530,80	50204,49
530,97	50237,26
531,14	51501,15
531,31	51863,93
531,48	52299,27
531,65	53045,90
531,83	52889,09
532,00	52755,68
532,17	50955,80
532,34	49464,88
532,51	49874,48
532,68	49900,22
532,85	51152,41
533,02	52315,65
533,19	52750,99
533,36	53446,13
533,53	53581,88
533,70	53961,05
533,87	53382,94
534,04	51957,55
534,21	50375,35
534,38	50614,08
534,55	50670,26
534,72	51969,26
534,89	52238,42
535,06	53422,73
535,23	53705,93
535,40	53696,57
535,57	53827,64
535,74	54412,77
535,91	54096,80
536,08	52919,51
536,25	51938,83
536,42	50749,84
536,59	50560,25
536,76	51849,89
536,93	52772,06
537,10	53282,30
537,27	52851,64
537,44	53045,90
537,61	53616,99
537,78	55040,04
537,95	55341,97
538,12	54850,45
538,29	53572,52
538,45	52198,63
538,62	50405,78
538,79	50506,42
538,96	50529,83
539,13	51838,18
539,30	52498,22
539,47	53605,29
539,64	54445,54
539,81	55400,48
539,98	55908,38
540,15	55648,58
540,32	54773,22
540,49	53233,14
540,66	51264,75
540,82	49724,68
540,99	50150,66
541,16	51065,81
541,33	52126,07
541,50	53551,46
541,67	54616,40
541,84	55274,09
542,01	56273,50
542,18	56711,18
542,34	56067,53
542,51	55276,43
542,68	53120,80
542,85	51756,27
543,02	50401,10
543,19	50569,61
543,36	51711,80
543,53	53020,16
543,69	54075,74
543,86	55119,62
544,03	56275,84
544,20	56371,80
544,37	56547,34
544,54	55943,48
544,70	54880,88
544,87	53619,33
545,04	52779,08
545,21	51664,99
545,38	51217,94
545,55	50726,43
545,71	52683,12
545,88	53956,37
546,05	55175,79
546,22	55863,91
546,39	56652,67
546,56	57003,75
546,72	56491,17
546,89	55641,56
547,06	55128,98
547,23	54660,87
547,40	54646,83
547,56	54365,96
547,73	53294,00
547,90	52655,03
548,07	53120,80
548,23	54939,39
548,40	55896,67
548,57	56430,32
548,74	56701,82
548,91	57127,80
549,07	56772,03
549,24	55978,59
549,41	55400,48
549,58	55405,16
549,74	55627,51
549,91	55758,58
550,08	54993,23
550,25	54323,83
550,41	53766,79
550,58	54419,80
550,75	55054,08
550,92	56650,33
551,08	56629,26
551,25	57200,35
551,42	57069,28
551,58	56580,11
551,75	56619,90
551,92	55943,48
552,09	56694,80
552,25	57165,24
552,42	58141,25
552,59	58277,00
552,75	57661,44
552,92	57649,74
553,09	57375,89
553,26	57509,30
553,42	57942,30
553,59	58443,18
553,76	58527,44
553,92	58377,64
554,09	58199,76
554,26	57406,32
554,42	56905,44
554,59	57139,50
554,76	57986,77
554,92	58508,71
555,09	58775,53
555,26	58766,17
555,42	58225,51
555,59	57581,86
555,76	56437,34
555,92	56453,72
556,09	57394,62
556,26	57984,43
556,42	58326,15
556,59	58831,71
556,75	57890,81
556,92	57425,04
557,09	57277,59
557,25	57635,69
557,42	58370,62
557,59	58717,02
557,75	59229,60
557,92	59393,43
558,08	59084,48
558,25	58576,59
558,42	57736,34
558,58	57455,47
558,75	57490,58
558,91	58417,43
559,08	58995,54
559,25	59030,65
559,41	58859,79
559,58	58726,38
559,74	58588,29
559,91	58841,07
560,08	59278,75
560,24	59994,95
560,41	60310,92
560,57	60736,90
560,74	61429,70
560,90	61261,18
561,07	60519,23
561,24	59901,33
561,40	59047,04
561,57	58693,61
561,73	59465,99
561,90	59697,70
562,06	59086,82
562,23	58384,66
562,39	57792,51
562,56	57064,60
562,72	57432,07
562,89	58321,47
563,05	59007,25
563,22	59381,73
563,38	60537,96
563,55	59987,93
563,72	60629,24
563,88	60704,13
564,05	60467,74
564,21	59477,69
564,38	59103,21
564,54	58607,01
564,71	58745,11
564,87	58494,67
565,04	57476,54
565,20	56846,93
565,36	55908,38
565,53	56802,46
565,69	57673,14
565,86	58279,34
566,02	59152,36
566,19	59355,99
566,35	60074,53
566,52	60577,75
566,68	60549,66
566,85	60935,85
567,01	60940,53
567,18	60013,68
567,34	59686,00
567,51	58946,39
567,67	57932,94
567,83	58312,11
568,00	57221,42
568,16	56687,78
568,33	56451,38
568,49	56999,07
568,66	57256,53
568,82	58588,29
568,98	58592,97
569,15	59215,55
569,31	59344,28
569,48	59618,13
569,64	60339,01
569,80	60470,08
569,97	60781,37
570,13	60559,02
570,30	60156,45
570,46	59538,55
570,62	58567,23
570,79	58241,89
570,95	57338,44
571,12	56800,12
571,28	55887,31
571,44	56210,31
571,61	56624,58
571,77	56884,38
571,93	57979,75
572,10	58504,03
572,26	58014,86
572,43	58812,98
572,59	59217,89
572,75	59990,27
572,92	60315,61
573,08	60441,99
573,24	60378,80
573,41	60842,23
573,57	60093,25
573,73	59739,83
573,90	58986,18
574,06	58183,38
574,22	57333,76
574,39	56444,36
574,55	56484,15
574,71	56573,09
574,88	56491,17
575,04	56987,36
575,20	57303,34
575,37	57160,56
575,53	58164,65
575,69	58686,59
575,85	59461,31
576,02	59976,23
576,18	60104,96
576,34	60554,34
576,51	61258,84
576,67	61223,73
576,83	60987,34
576,99	60533,28
577,16	60030,06
577,32	58705,32
577,48	57448,45
577,64	56985,02
577,81	56500,53
577,97	56238,39
578,13	56306,27
578,30	56727,56
578,46	56914,81
578,62	57574,84
578,78	57937,62
578,94	58672,55
579,11	59316,20
579,27	59913,03
579,43	60233,69
579,59	60692,43
579,76	61630,99
579,92	61460,13
580,08	61804,19
580,24	61841,63
580,41	61588,86
580,57	60310,92
580,73	59426,20
580,89	58621,06
581,05	57535,05
581,22	56942,89
581,38	56367,12
581,54	56093,28
581,70	56034,77
581,86	57059,92
582,03	58124,86
582,19	58480,63
582,35	59494,08
582,51	60076,87
582,67	60732,22
582,83	61591,20
583,00	61291,61
583,16	61893,13
583,32	62017,17
583,48	62307,40
583,64	61928,23
583,80	62197,40
583,97	62021,86
584,13	61052,87
584,29	60348,37
584,45	59238,96
584,61	58042,95
584,77	57680,16
584,93	57511,64
585,09	57221,42
585,26	58244,23
585,42	58908,94
585,58	59430,88
585,74	59866,22
585,90	60147,09
586,06	60322,63
586,22	61104,37
586,38	61095,00
586,55	61387,57
586,71	61886,10
586,87	62061,64
587,03	62199,74
587,19	62691,25
587,35	62798,91
587,51	62216,12
587,67	61626,31
587,83	60533,28
587,99	58784,90
588,15	57382,91
588,31	56765,01
588,48	57104,39
588,64	56966,30
588,80	58066,35
588,96	58962,78
589,12	59206,19
589,28	59571,32
589,44	60025,38
589,60	60456,04
589,76	60699,45
589,92	61017,77
590,08	61600,56
590,24	61860,36
590,40	62255,91
590,56	62791,89
590,72	62611,67
590,88	63206,17
591,04	63075,10
591,20	62602,31
591,36	62101,43
591,52	60434,97
591,68	59487,06
591,84	58389,34
592,00	58150,61
592,16	58145,93
592,32	58817,66
592,48	59049,38
592,64	59728,13
592,80	59994,95
592,96	60720,52
593,12	60952,23
593,28	61221,39
593,44	61836,95
593,60	62131,86
593,76	62480,60
593,92	62408,04
594,08	62866,79
594,24	62583,58
594,40	63248,30
594,56	63173,40
594,72	63297,45
594,88	62824,66
595,04	61921,21
595,20	60528,59
595,36	58965,12
595,52	57977,41
595,67	56729,90
595,83	56814,16
595,99	56928,85
596,15	58092,10
596,31	58637,44
596,47	59372,37
596,63	59751,54
596,79	59980,91
596,95	60296,88
597,11	60987,34
597,27	61151,18
597,43	61628,65
597,58	61853,34
597,74	61890,79
597,90	62361,23
598,06	62876,15
598,22	62920,62
598,38	63182,76
598,54	63039,99
598,70	62829,34
598,86	61965,68
599,01	60739,24
599,17	59138,32
599,33	57918,90
599,49	57434,41
599,65	57277,59
599,81	58064,01
599,97	58379,98
600,12	58920,65
600,28	59311,52
600,44	59840,48
600,60	60147,09
600,76	60818,82
600,92	61193,31
601,07	61516,30
601,23	61460,13
601,39	61738,65
601,55	62176,33
601,71	62422,09
601,87	62644,44
602,02	63002,54
602,18	62925,30
602,34	62922,96
602,50	62831,68
602,66	61851,00
602,81	61286,93
602,97	59664,94
603,13	58644,46
603,29	57483,56
603,45	57733,99
603,60	57605,26
603,76	58672,55
603,92	58824,68
604,08	59355,99
604,23	59615,79
604,39	60179,85
604,55	60640,94
604,71	60580,09
604,86	61097,34
605,02	61462,47
605,18	61584,18
605,34	61776,10
605,49	62129,52
605,65	62475,92
605,81	62473,58
605,97	62904,24
606,12	62747,42
606,28	62719,34
606,44	62241,87
606,60	61659,07
606,75	60219,64
606,91	59285,77
607,07	58075,71
607,22	57621,65
607,38	57687,18
607,54	57633,35
607,70	57937,62
607,85	58525,10
608,01	59007,25
608,17	59716,43
608,32	59803,03
608,48	59948,14
608,64	60343,69
608,79	60530,93
608,95	60961,59
609,11	61254,16
609,26	61462,47
609,42	61642,69
609,58	61708,22
609,74	62059,30
609,89	62026,54
610,05	62255,91
610,20	62206,76
610,36	61930,58
610,52	61214,37
610,67	60533,28
610,83	59178,10
610,99	58454,88
611,14	57530,37
611,30	57626,33
611,46	57338,44
611,61	57928,26
611,77	58482,97
611,93	58450,20
612,08	58726,38
612,24	59402,80
612,39	59955,16
612,55	59543,23
612,71	59955,16
612,86	60009,00
613,02	60439,65
613,17	60608,17
613,33	60528,59
613,49	60725,20
613,64	60800,10
613,80	61125,43
613,95	61570,13
614,11	60947,55
614,26	61242,46
614,42	60959,25
614,58	60697,11
614,73	59662,60
614,89	58599,99
615,04	58143,59
615,20	57502,28
615,35	57003,75
615,51	57052,90
615,67	57167,58
615,82	57790,17
615,98	57708,25
616,13	58230,19
616,29	58478,28
616,44	58590,63
616,60	59056,40
616,75	58866,81
616,91	59870,90
617,06	59355,99
617,22	59657,91
617,37	59866,22
617,53	59990,27
617,68	60177,51
617,84	60479,44
617,99	60097,94
618,15	60727,54
618,30	60486,46
618,46	60505,19
618,61	59955,16
618,77	58972,14
618,92	58274,66
619,08	57623,99
619,23	56846,93
619,39	57130,14
619,54	56999,07
619,70	57066,94
619,85	56779,06
620,01	57127,80
620,16	57345,47
620,32	57584,20
620,47	58293,38
620,63	57932,94
620,78	58492,33
620,93	58363,60
621,09	59044,69
621,24	59000,22
621,40	58801,28
621,55	59241,30
621,71	59400,46
621,86	59468,33
622,01	59398,12
622,17	59393,43
622,32	59650,89
622,48	59171,08
622,63	58834,05
622,79	58216,14
622,94	58148,27
623,09	57703,57
623,25	57062,26
623,40	56310,95
623,56	56392,87
623,71	56002,00
623,86	56214,99
624,02	56404,57
624,17	56217,33
624,32	56559,05
624,48	56687,78
624,63	56690,12
624,79	57141,84
624,94	57198,01
625,09	57549,09
625,25	57813,57
625,40	57612,29
625,55	58321,47
625,71	58094,44
625,86	58192,74
626,01	58702,98
626,17	58450,20
626,32	58148,27
626,47	58714,68
626,63	58136,57
626,78	57895,49
626,93	57684,84
627,09	57790,17
627,24	57113,75
627,39	57055,24
627,55	56409,25
627,70	55597,09
627,85	55707,09
628,01	55440,27
628,16	55889,65
628,31	55791,35
628,47	55845,18
628,62	56090,94
628,77	56144,77
628,92	55997,32
629,08	55721,13
629,23	56481,81
629,38	56617,56
629,54	56535,64
629,69	56839,91
629,84	57200,35
629,99	57602,92
630,15	56853,95
630,30	57357,17
630,45	57439,09
630,60	57607,61
630,76	57736,34
630,91	56959,28
631,06	57443,77
631,21	56830,55
631,37	56863,32
631,52	56743,95
631,67	56123,71
631,82	56704,16
631,98	55983,27
632,13	55908,38
632,28	55538,57
632,43	55407,50
632,58	55648,58
632,74	55693,05
632,89	55826,46
633,04	55391,12
633,19	55056,42
633,34	55615,81
633,50	56317,97
633,65	55856,88
633,80	55957,53
633,95	56154,13
634,10	56044,13
634,26	56238,39
634,41	56275,84
634,56	56736,93
634,71	56413,93
634,86	56383,51
635,01	56566,07
635,17	56383,51
635,32	56175,20
635,47	56418,61
635,62	56151,79
635,77	55742,20
635,92	55112,59
636,07	55241,32
636,23	55035,36
636,38	54571,93
636,53	54520,44
636,68	54436,18
636,83	54569,59
636,98	54377,67
637,13	54717,04
637,28	54213,83
637,44	54646,83
637,59	54663,21
637,74	54216,17
637,89	54979,18
638,04	54745,13
638,19	55414,52
638,34	54721,72
638,49	55611,13
638,64	54691,30
638,79	55100,89
638,95	55061,10
639,10	54714,70
639,25	55061,10
639,40	55320,90
639,55	55398,14
639,70	55496,44
639,85	54969,82
640,00	54824,71
640,15	55110,25
640,30	54621,08
640,45	54508,74
640,60	53839,34
640,75	54160,00
640,90	53698,91
641,05	53284,64
641,20	53631,04
641,35	53633,38
641,50	53432,09
641,65	53715,29
641,80	53743,38
641,95	53586,57
642,11	53851,05
642,26	53881,47
642,41	54131,91
642,56	54169,36
642,71	53956,37
642,86	53893,18
643,01	54368,30
643,16	54220,85
643,31	54323,83
643,46	54052,33
643,61	54094,46
643,75	54045,31
643,90	54291,07
644,05	54209,15
644,20	54040,63
644,35	53827,64
644,50	54038,29
644,65	53659,12
644,80	53528,05
644,95	53586,57
645,10	52891,43
645,25	53071,65
645,40	52863,34
645,55	53137,18
645,70	52339,06
645,85	52310,97
646,00	52224,37
646,15	52343,74
646,30	52186,92
646,45	52498,22
646,60	52849,30
646,74	52435,02
646,89	52804,83
647,04	52750,99
647,19	53324,43
647,34	52559,07
647,49	53038,88
647,64	52971,00
647,79	52502,90
647,94	53017,82
648,09	52734,61
648,23	52732,27
648,38	52849,30
648,53	52617,58
648,68	52617,58
648,83	52470,13
648,98	52491,19
649,13	52299,27
649,28	51980,96
649,42	52161,18
649,57	51915,42
649,72	51650,94
649,87	51835,84
650,02	51480,08
650,17	51646,26
650,32	51601,79
650,46	51414,55
650,61	51381,78
650,76	51480,08
650,91	51131,34
651,06	51386,46
651,21	51138,36
651,35	51168,79
651,50	51487,10
651,65	51592,43
651,80	51203,90
651,95	51437,95
652,09	51203,90
652,24	51599,45
652,39	50777,92
652,54	51002,61
652,69	51143,05
652,83	51737,54
652,98	51597,11
653,13	51220,28
653,28	51093,89
653,43	51030,70
653,57	50808,35
653,72	51002,61
653,87	50401,10
654,02	50244,28
654,16	50361,31
654,31	50302,79
654,46	50192,79
654,61	50417,48
654,75	50504,08
654,90	49455,52
655,05	49951,71
655,20	49565,52
655,34	49434,45
655,49	49478,92
655,64	49581,91
655,79	49624,04
655,93	49411,05
656,08	49925,97
656,23	49785,54
656,38	49277,64
656,52	49413,39
656,67	49289,34
656,82	49654,47
656,96	49546,80
657,11	49766,81
657,26	49731,70
657,40	48875,07
657,55	49258,91
657,70	49001,46
657,84	49495,31
657,99	49310,41
658,14	49492,97
658,29	49504,67
658,43	48701,87
658,58	48722,93
658,73	48271,21
658,87	48645,69
659,02	48615,27
659,16	48329,72
659,31	48177,59
659,46	47852,25
659,60	48219,72
659,75	48222,06
659,90	47807,78
660,04	47590,11
660,19	47728,20
660,34	48219,72
660,48	47723,52
660,63	47489,47
660,77	47484,79
660,92	47711,82
661,07	47878,00
661,21	47636,92
661,36	47131,37
661,51	47260,10
661,65	47313,93
661,80	47519,90
661,94	47339,68
662,09	47934,17
662,23	47627,56
662,38	47412,23
662,53	47182,86
662,67	47079,88
662,82	47349,04
662,96	47168,82
663,11	46883,27
663,26	46848,16
663,40	46504,10
663,55	46759,22
663,69	46471,34
663,84	46564,96
663,98	46068,76
664,13	46309,84
664,27	45893,22
664,42	46148,34
664,56	46457,29
664,71	45717,68
664,86	45944,72
665,00	45933,01
665,15	45832,37
665,29	45460,23
665,44	45268,30
665,58	45649,81
665,73	45537,46
665,87	45572,57
666,02	45476,61
666,16	45347,88
666,31	44992,12
666,45	44872,75
666,60	45191,06
666,74	44655,08
666,89	45378,31
667,03	45038,93
667,18	45134,89
667,32	44790,83
667,47	45078,72
667,61	44802,53
667,75	44683,17
667,90	44388,26
668,04	44556,78
668,19	44360,17
668,33	44311,02
668,48	44163,57
668,62	43873,34
668,77	43683,76
668,91	43702,48
669,06	43070,54
669,20	43620,56
669,34	43510,56
669,49	43882,70
669,63	43433,32
669,78	43641,63
669,92	43217,99
670,07	43019,05
670,21	43274,16
670,35	43166,50
670,50	43447,36
670,64	42796,70
670,79	43395,87
670,93	43475,45
671,07	42726,48
671,22	42918,40
671,36	42909,04
671,50	42841,17
671,65	42487,74
671,79	42993,30
671,94	42527,53
672,08	42417,53
672,22	42454,98
672,37	42244,33
672,51	42171,77
672,65	41923,68
672,80	42227,95
672,94	42258,37
673,08	42162,41
673,23	42059,43
673,37	41537,49
673,52	42014,96
673,66	41720,05
673,80	41897,93
673,95	41371,31
674,09	41432,16
674,23	41504,72
674,37	41048,32
674,52	41137,26
674,66	41104,49
674,80	41209,81
674,95	41057,68
675,09	41067,04
675,23	40650,42
675,38	40765,11
675,52	40804,90
675,66	40650,42
675,80	40439,78
675,95	40727,66
676,09	40980,44
676,23	40769,79
676,38	40334,45
676,52	39728,25
676,66	40570,85
676,80	40231,47
676,95	40339,13
677,09	39910,82
677,23	39765,70
677,37	39992,73
677,52	39995,07
677,66	39826,56
677,80	39934,22
677,94	39533,99
678,09	39519,95
678,23	38918,43
678,37	39299,94
678,51	39218,02
678,66	39122,05
678,80	38630,54
678,94	39260,15
679,08	38794,38
679,22	38827,15
679,37	38850,55
679,51	38902,04
679,65	38630,54
679,79	38490,11
679,93	38806,08
680,08	38038,39
680,22	38382,45
680,36	38705,44
680,50	38188,18
680,64	38150,73
680,78	38099,24
680,93	37858,17
681,07	38007,96
681,21	38754,59
681,35	37968,17
681,49	37624,11
681,63	37736,46
681,78	37500,06
681,92	37724,75
682,06	37820,72
682,20	37544,53
682,34	37385,38
682,48	37280,05
682,62	37804,33
682,77	37158,34
682,91	36893,86
683,05	37340,91
683,19	36992,17
683,33	37083,45
683,47	36772,16
683,61	36631,72
683,75	36821,31
683,89	36603,64
684,04	36414,05
684,18	36341,50
684,32	36236,17
684,46	36081,70
684,60	36172,98
684,74	36336,82
684,88	35924,88
685,02	35826,58
685,16	35777,43
685,30	35763,39
685,44	35718,92
685,58	35440,39
685,72	35660,40
685,87	35742,32
686,01	35742,32
686,15	35400,60
686,29	35239,11
686,43	34960,58
686,57	35379,54
686,71	35416,99
686,85	35026,12
686,99	34838,87
687,13	34906,75
687,27	34925,47
687,41	34419,92
687,55	34499,50
687,69	34300,55
687,83	34071,18
687,97	34279,49
688,11	34115,65
688,25	34003,30
688,39	33790,31
688,53	33729,46
688,67	33528,17
688,81	33460,30
688,95	33373,70
689,09	33558,60
689,23	32854,10
689,37	32772,18
689,51	32716,01
689,65	32350,88
689,79	32402,38
689,93	32442,17
690,07	31845,33
690,21	32030,23
690,35	31716,60
690,49	31992,78
690,63	31669,79
690,76	31688,51
690,90	31110,40
691,04	30962,95
691,18	30693,79
691,32	30731,23
691,46	30176,53
691,60	30195,25
691,74	30293,55
691,88	30213,98
692,02	30270,15
692,16	29837,15
692,30	29727,14
692,44	29188,82
692,57	29418,19
692,71	29329,25
692,85	29256,70
692,99	28950,09
693,13	28568,58
693,27	28332,18
693,41	28037,28
693,55	28032,60
693,69	27843,01
693,82	27758,75
693,96	27590,24
694,10	26904,46
694,24	26981,70
694,38	26927,86
694,52	26831,90
694,66	26632,96
694,79	26480,82
694,93	26363,79
695,07	26008,03
695,21	25764,62
695,35	25556,31
695,49	25654,61
695,62	25305,87
695,76	25214,59
695,90	24844,79
696,04	24613,07
696,18	24753,51
696,31	24570,94
696,45	23978,79
696,59	24198,80
696,73	23742,39
696,87	23613,66
697,00	23173,64
697,14	23468,55
697,28	23325,78
697,42	22876,40
697,56	22881,08
697,69	22712,56
697,83	22464,46
697,97	22656,39
698,11	22218,71
698,24	22150,83
698,38	21862,94
698,52	21752,94
698,66	21551,65
698,80	21174,83
698,93	21488,46
699,07	20893,96
699,21	20819,07
699,34	20629,48
699,48	20161,37
699,62	20079,46
699,76	20002,22
699,89	19924,98
700,03	19840,72
700,17	19892,21
700,31	19300,06
700,44	19194,73
700,58	19124,52
700,72	19002,81
700,85	18820,25
700,99	18623,64
701,13	18541,72
701,26	18420,02
701,40	18092,34
701,54	17703,81
701,68	17661,68
701,81	17516,57
701,95	17497,84
702,09	17254,43
702,22	17364,43
702,36	17053,14
702,50	17003,99
702,63	16573,33
702,77	16655,25
702,91	16528,86
703,04	16388,43
703,18	16027,99
703,31	16056,08
703,45	15620,74
703,59	15477,96
703,72	15552,86
703,86	15304,76
704,00	15126,88
704,13	15089,43
704,27	14831,97
704,40	14820,27
704,54	14579,20
704,68	14546,43
704,81	14490,26
704,95	14169,60
705,08	14333,44
705,22	14230,46
705,36	13731,92
705,49	13591,49
705,63	13540,00
705,76	13380,84
705,90	13315,31
706,04	13165,51
706,17	13095,30
706,31	13001,68
706,44	12727,83
706,58	12528,89
706,71	12727,83
706,85	12449,31
706,99	12224,62
707,12	12332,28
707,26	12016,31
707,39	12126,32
707,53	11847,79
707,66	11857,15
707,80	11686,29
707,93	11449,90
708,07	11506,07
708,20	11365,64
708,34	11171,38
708,47	10874,13
708,61	10904,56
708,74	10801,57
708,88	10593,26
709,01	10714,97
709,15	10422,41
709,28	10312,40
709,42	10232,82
709,55	10303,04
709,69	9968,34
709,82	9956,64
709,96	9757,69
710,09	9624,28
710,23	9640,67
710,36	9635,99
710,50	9371,50
710,63	9341,08
710,77	9289,59
710,90	9137,45
711,04	9118,73
711,17	8816,80
711,30	8959,57
711,44	8800,41
711,57	8573,38
711,71	8484,44
711,84	8416,57
711,98	8561,68
712,11	8297,20
712,24	8131,02
712,38	8184,85
712,51	8013,99
712,65	8028,04
712,78	7946,12
712,92	7756,54
713,05	7693,34
713,18	7599,72
713,32	7566,95
713,45	7503,76
713,59	7339,92
713,72	7136,29
713,85	7082,46
713,99	7108,21
714,12	7192,47
714,25	6923,30
714,39	7108,21
714,52	6778,19
714,66	6761,81
714,79	6841,39
714,92	6539,46
715,06	6628,40
715,19	6502,01
715,32	6415,41
715,46	6328,81
715,59	6289,02
715,72	6267,95
715,86	6310,08
715,99	6064,33
716,12	6040,92
716,26	5926,24
716,39	6050,28
716,52	5738,99
716,66	5685,16
716,79	5638,35
716,92	5561,11
717,05	5640,69
717,19	5589,20
717,32	5427,70
717,45	5451,11
717,59	5266,21
717,72	5350,46
717,85	5305,99
717,98	5057,90
718,12	5114,07
718,25	4950,23
718,38	5050,88
718,52	5069,60
718,65	5036,83
718,78	4926,83
718,91	4926,83
719,05	4814,48
719,18	4821,50
719,31	4671,71
719,44	4655,33
719,58	4718,52
719,71	4561,70
719,84	4538,30
719,97	4451,70
720,10	4620,22
720,24	4479,79
720,37	4264,46
720,50	4311,27
720,63	4257,43
720,77	4177,86
720,90	4271,48
721,03	4149,77
721,16	4060,83
721,29	4039,76
721,43	3985,93
721,56	4042,11
721,69	3990,61
721,82	3845,50
721,95	3838,48
722,08	3859,54
722,22	3859,54
722,35	3779,97
722,48	3702,73
722,61	3709,75
722,74	3676,98
722,87	3716,77
723,01	3613,79
723,14	3616,13
723,27	3499,10
723,40	3494,42
723,53	3461,65
723,66	3442,93
723,79	3531,87
723,93	3417,18
724,06	3351,65
724,19	3314,20
724,32	3323,56
724,45	3290,79
724,58	3337,60
724,71	3269,73
724,84	3187,81
724,97	3222,92
725,11	3274,41
725,24	3164,40
725,37	3117,59
725,50	3122,27
725,63	3028,65
725,76	3066,10
725,89	3068,44
726,02	3068,44
726,15	2930,35
726,28	2979,50
726,41	2928,01
726,54	2928,01
726,67	2928,01
>>>>>End Processed Spectral Data<<<<<
